# Date: Wed Jan 17 09:56:13 2024
# LED: 1
#Wavelength	#Inital reflectance [%]	#Final reflectance [%]
91.0096	0	0
91.2522	0	0
91.4948	0	0
91.7374	0	0
91.98	0	0
92.2226	0	0
92.4651	0	0
92.7076	0	0
92.9501	0	0
93.1925	0	0
93.4349	0	0
93.6773	0	0
93.9197	0	0
94.1621	0	0
94.4044	0	0
94.6467	0	0
94.889	0	0
95.1312	0	0
95.3734	0	0
95.6156	0	0
95.8578	0	0
96.0999	0	0
96.3421	0	0
96.5842	0	0
96.8262	0	0
97.0683	0	0
97.3103	0	0
97.5523	0	0
97.7943	0	0
98.0362	0	0
98.2782	0	0
98.5201	0	0
98.7619	0	0
99.0038	0	0
99.2456	0	0
99.4874	0	0
99.7292	0	0
99.9709	0	0
100.213	0	0
100.454	0	0
100.696	0	0
100.938	0	0
101.179	0	0
101.421	0	0
101.662	0	0
101.904	0	0
102.146	0	0
102.387	0	0
102.629	0	0
102.87	0	0
103.111	0	0
103.353	0	0
103.594	0	0
103.835	0	0
104.077	0	0
104.318	0	0
104.559	0	0
104.801	0	0
105.042	0	0
105.283	0	0
105.524	0	0
105.765	0	0
106.006	0	0
106.248	0	0
106.489	0	0
106.73	0	0
106.971	0	0
107.212	0	0
107.453	0	0
107.694	0	0
107.935	0	0
108.175	0	0
108.416	0	0
108.657	0	0
108.898	0	0
109.139	0	0
109.38	0	0
109.62	0	0
109.861	0	0
110.102	0	0
110.342	0	0
110.583	0	0
110.824	0	0
111.064	0	0
111.305	0	0
111.545	0	0
111.786	0	0
112.026	0	0
112.267	0	0
112.507	0	0
112.748	0	0
112.988	0	0
113.228	0	0
113.469	0	0
113.709	0	0
113.949	0	0
114.19	0	0
114.43	0	0
114.67	0	0
114.91	0	0
115.151	0	0
115.391	0	0
115.631	0	0
115.871	0	0
116.111	0	0
116.351	0	0
116.591	0	0
116.831	0	0
117.071	0	0
117.311	0	0
117.551	0	0
117.791	0	0
118.031	0	0
118.27	0	0
118.51	0	0
118.75	0	0
118.99	0	0
119.23	0	0
119.469	0	0
119.709	0	0
119.949	0	0
120.188	0	0
120.428	0	0
120.667	0	0
120.907	0	0
121.147	0	0
121.386	0	0
121.626	0	0
121.865	0	0
122.104	0	0
122.344	0	0
122.583	0	0
122.823	0	0
123.062	0	0
123.301	0	0
123.541	0	0
123.78	0	0
124.019	0	0
124.258	0	0
124.498	0	0
124.737	0	0
124.976	0	0
125.215	0	0
125.454	0	0
125.693	0	0
125.932	0	0
126.171	0	0
126.41	0	0
126.649	0	0
126.888	0	0
127.127	0	0
127.366	0	0
127.605	0	0
127.844	0	0
128.082	0	0
128.321	0	0
128.56	0	0
128.799	0	0
129.037	0	0
129.276	0	0
129.515	0	0
129.753	0	0
129.992	0	0
130.231	0	0
130.469	0	0
130.708	0	0
130.946	0	0
131.185	0	0
131.423	0	0
131.662	0	0
131.9	0	0
132.138	0	0
132.377	0	0
132.615	0	0
132.853	0	0
133.092	0	0
133.33	0	0
133.568	0	0
133.806	0	0
134.045	0	0
134.283	0	0
134.521	0	0
134.759	0	0
134.997	0	0
135.235	0	0
135.473	0	0
135.711	0	0
135.949	0	0
136.187	0	0
136.425	0	0
136.663	0	0
136.901	0	0
137.139	0	0
137.377	0	0
137.614	0	0
137.852	0	0
138.09	0	0
138.328	0	0
138.565	0	0
138.803	0	0
139.041	0	0
139.278	0	0
139.516	0	0
139.754	0	0
139.991	0	0
140.229	0	0
140.466	0	0
140.704	0	0
140.941	0	0
141.179	0	0
141.416	0	0
141.653	0	0
141.891	0	0
142.128	0	0
142.365	0	0
142.603	0	0
142.84	0	0
143.077	0	0
143.314	0	0
143.552	0	0
143.789	0	0
144.026	0	0
144.263	0	0
144.5	0	0
144.737	0	0
144.974	0	0
145.211	0	0
145.448	0	0
145.685	0	0
145.922	0	0
146.159	0	0
146.396	0	0
146.633	0	0
146.869	0	0
147.106	0	0
147.343	0	0
147.58	0	0
147.817	0	0
148.053	0	0
148.29	0	0
148.527	0	0
148.763	0	0
149	0	0
149.236	0	0
149.473	0	0
149.71	0	0
149.946	0	0
150.182	0	0
150.419	0	0
150.655	0	0
150.892	0	0
151.128	0	0
151.365	0	0
151.601	0	0
151.837	0	0
152.073	0	0
152.31	0	0
152.546	0	0
152.782	0	0
153.018	0	0
153.254	0	0
153.491	0	0
153.727	0	0
153.963	0	0
154.199	0	0
154.435	0	0
154.671	0	0
154.907	0	0
155.143	0	0
155.379	0	0
155.615	0	0
155.851	0	0
156.086	0	0
156.322	0	0
156.558	0	0
156.794	0	0
157.03	0	0
157.265	0	0
157.501	0	0
157.737	0	0
157.972	0	0
158.208	0	0
158.444	0	0
158.679	0	0
158.915	0	0
159.15	0	0
159.386	0	0
159.621	0	0
159.857	0	0
160.092	0	0
160.328	0	0
160.563	0	0
160.798	0	0
161.034	0	0
161.269	0	0
161.504	0	0
161.739	0	0
161.975	0	0
162.21	0	0
162.445	0	0
162.68	0	0
162.915	0	0
163.15	0	0
163.385	0	0
163.621	0	0
163.856	0	0
164.091	0	0
164.326	0	0
164.561	0	0
164.795	0	0
165.03	0	0
165.265	0	0
165.5	0	0
165.735	0	0
165.97	0	0
166.204	0	0
166.439	0	0
166.674	0	0
166.909	0	0
167.143	0	0
167.378	0	0
167.613	0	0
167.847	0	0
168.082	0	0
168.316	0	0
168.551	0	0
168.785	0	0
169.02	0	0
169.254	0	0
169.489	0	0
169.723	0	0
169.958	0	0
170.192	0	0
170.426	0	0
170.66	0	0
170.895	0	0
171.129	0	0
171.363	0	0
171.597	0	0
171.832	0	0
172.066	0	0
172.3	0	0
172.534	0	0
172.768	0	0
173.002	0	0
173.236	0	0
173.47	0	0
173.704	0	0
173.938	0	0
174.172	0	0
174.406	0	0
174.64	0	0
174.874	0	0
175.107	0	0
175.341	0	0
175.575	0	0
175.809	0	0
176.042	0	0
176.276	0	0
176.51	0	0
176.743	0	0
176.977	0	0
177.211	0	0
177.444	0	0
177.678	0	0
177.911	0	0
178.145	0	0
178.378	0	0
178.612	0	0
178.845	0	0
179.079	0	0
179.312	0	0
179.545	0	0
179.779	0	0
180.012	0	0
180.245	0	0
180.478	0	0
180.712	0	0
180.945	0	0
181.178	0	0
181.411	0	0
181.644	0	0
181.877	0	0
182.111	0	0
182.344	0	0
182.577	0	0
182.81	0	0
183.043	0	0
183.275	0	0
183.508	0	0
183.741	0	0
183.974	0	0
184.207	0	0
184.44	0	0
184.673	0	0
184.905	0	0
185.138	0	0
185.371	0	0
185.604	0	0
185.836	0	0
186.069	0	0
186.302	0	0
186.534	0	0
186.767	0	0
186.999	0	0
187.232	0	0
187.464	0	0
187.697	0	0
187.929	0	0
188.162	0	0
188.394	0	0
188.626	0	0
188.859	0	0
189.091	0	0
189.323	0	0
189.556	0	0
189.788	0	0
190.02	0	0
190.252	0	0
190.484	0	0
190.717	0	0
190.949	0	0
191.181	0	0
191.413	0	0
191.645	0	0
191.877	0	0
192.109	0	0
192.341	0	0
192.573	0	0
192.805	0	0
193.037	0	0
193.268	0	0
193.5	0	0
193.732	0	0
193.964	0	0
194.196	0	0
194.427	0	0
194.659	0	0
194.891	0	0
195.123	0	0
195.354	0	0
195.586	0	0
195.817	0	0
196.049	0	0
196.281	0	0
196.512	0	0
196.744	0	0
196.975	0	0
197.206	0	0
197.438	0	0
197.669	0	0
197.901	0	0
198.132	0	0
198.363	0	0
198.595	0	0
198.826	0	0
199.057	0	0
199.288	0	0
199.519	0	0
199.751	0	0
199.982	0	0
200.213	0	0
200.444	0	0
200.675	0	0
200.906	0	0
201.137	0	0
201.368	0	0
201.599	0	0
201.83	0	0
202.061	0	0
202.292	0	0
202.523	0	0
202.754	0	0
202.984	0	0
203.215	0	0
203.446	0	0
203.677	0	0
203.907	0	0
204.138	0	0
204.369	0	0
204.599	0	0
204.83	0	0
205.061	0	0
205.291	0	0
205.522	0	0
205.752	0	0
205.983	0	0
206.213	0	0
206.444	0	0
206.674	0	0
206.904	0	0
207.135	0	0
207.365	0	0
207.595	0	0
207.826	0	0
208.056	0	0
208.286	0	0
208.516	0	0
208.747	0	0
208.977	0	0
209.207	0	0
209.437	0	0
209.667	0	0
209.897	0	0
210.127	0	0
210.357	0	0
210.587	0	0
210.817	0	0
211.047	0	0
211.277	0	0
211.507	0	0
211.737	0	0
211.967	0	0
212.196	0	0
212.426	0	0
212.656	0	0
212.886	0	0
213.115	0	0
213.345	0	0
213.575	0	0
213.804	0	0
214.034	0	0
214.264	0	0
214.493	0	0
214.723	0	0
214.952	0	0
215.182	0	0
215.411	0	0
215.641	0	0
215.87	0	0
216.099	0	0
216.329	0	0
216.558	0	0
216.787	0	0
217.017	0	0
217.246	0	0
217.475	0	0
217.704	0	0
217.934	0	0
218.163	0	0
218.392	0	0
218.621	0	0
218.85	0	0
219.079	0	0
219.308	0	0
219.537	0	0
219.766	0	0
219.995	0	0
220.224	0	0
220.453	0	0
220.682	0	0
220.911	0	0
221.14	0	0
221.368	0	0
221.597	0	0
221.826	0	0
222.055	0	0
222.283	0	0
222.512	0	0
222.741	0	0
222.969	0	0
223.198	0	0
223.426	0	0
223.655	0	0
223.884	0	0
224.112	0	0
224.341	0	0
224.569	0	0
224.797	0	0
225.026	0	0
225.254	0	0
225.483	0	0
225.711	0	0
225.939	0	0
226.168	0	0
226.396	0	0
226.624	0	0
226.852	0	0
227.08	0	0
227.309	0	0
227.537	0	0
227.765	0	0
227.993	0	0
228.221	0	0
228.449	0	0
228.677	0	0
228.905	0	0
229.133	0	0
229.361	0	0
229.589	0	0
229.817	0	0
230.045	0	0
230.272	0	0
230.5	0	0
230.728	0	0
230.956	0	0
231.183	0	0
231.411	0	0
231.639	0	0
231.866	0	0
232.094	0	0
232.322	0	0
232.549	0	0
232.777	0	0
233.004	0	0
233.232	0	0
233.459	0	0
233.687	0	0
233.914	0	0
234.142	0	0
234.369	0	0
234.596	0	0
234.824	0	0
235.051	0	0
235.278	0	0
235.506	0	0
235.733	0	0
235.96	0	0
236.187	0	0
236.414	0	0
236.641	0	0
236.869	0	0
237.096	0	0
237.323	0	0
237.55	0	0
237.777	0	0
238.004	0	0
238.231	0	0
238.458	0	0
238.685	0	0
238.911	0	0
239.138	0	0
239.365	0	0
239.592	0	0
239.819	0	0
240.045	0	0
240.272	0	0
240.499	0	0
240.726	0	0
240.952	0	0
241.179	0	0
241.405	0	0
241.632	0	0
241.859	0	0
242.085	0	0
242.312	0	0
242.538	0	0
242.764	0	0
242.991	0	0
243.217	0	0
243.444	0	0
243.67	0	0
243.896	0	0
244.123	0	0
244.349	0	0
244.575	0	0
244.801	0	0
245.028	0	0
245.254	0	0
245.48	0	0
245.706	0	0
245.932	0	0
246.158	0	0
246.384	0	0
246.61	0	0
246.836	0	0
247.062	0	0
247.288	0	0
247.514	0	0
247.74	0	0
247.966	0	0
248.192	0	0
248.418	0	0
248.643	0	0
248.869	0	0
249.095	0	0
249.321	0	0
249.546	0	0
249.772	0	0
249.998	0	0
250.223	0	0
250.449	0	0
250.675	0	0
250.9	0	0
251.126	0	0
251.351	0	0
251.577	0	0
251.802	0	0
252.027	0	0
252.253	0	0
252.478	0	0
252.704	0	0
252.929	0	0
253.154	0	0
253.379	0	0
253.605	0	0
253.83	0	0
254.055	0	0
254.28	0	0
254.505	0	0
254.731	0	0
254.956	0	0
255.181	0	0
255.406	0	0
255.631	0	0
255.856	0	0
256.081	0	0
256.306	0	0
256.531	0	0
256.756	0	0
256.98	0	0
257.205	0	0
257.43	0	0
257.655	0	0
257.88	0	0
258.104	0	0
258.329	0	0
258.554	0	0
258.779	0	0
259.003	0	0
259.228	0	0
259.452	0	0
259.677	0	0
259.902	0	0
260.126	0	0
260.351	0	0
260.575	0	0
260.799	0	0
261.024	0	0
261.248	0	0
261.473	0	0
261.697	0	0
261.921	0	0
262.146	0	0
262.37	0	0
262.594	0	0
262.818	0	0
263.043	0	0
263.267	0	0
263.491	0	0
263.715	0	0
263.939	0	0
264.163	0	0
264.387	0	0
264.611	0	0
264.835	0	0
265.059	0	0
265.283	0	0
265.507	0	0
265.731	0	0
265.955	0	0
266.179	0	0
266.402	0	0
266.626	0	0
266.85	0	0
267.074	0	0
267.298	0	0
267.521	0	0
267.745	0	0
267.969	0	0
268.192	0	0
268.416	0	0
268.639	0	0
268.863	0	0
269.086	0	0
269.31	0	0
269.533	0	0
269.757	0	0
269.98	0	0
270.204	0	0
270.427	0	0
270.65	0	0
270.874	0	0
271.097	0	0
271.32	0	0
271.543	0	0
271.767	0	0
271.99	0	0
272.213	0	0
272.436	0	0
272.659	0	0
272.882	0	0
273.105	0	0
273.328	0	0
273.551	0	0
273.774	0	0
273.997	0	0
274.22	0	0
274.443	0	0
274.666	0	0
274.889	0	0
275.112	0	0
275.335	0	0
275.557	0	0
275.78	0	0
276.003	0	0
276.226	0	0
276.448	0	0
276.671	0	0
276.894	0	0
277.116	0	0
277.339	0	0
277.561	0	0
277.784	0	0
278.007	0	0
278.229	0	0
278.452	0	0
278.674	0	0
278.896	0	0
279.119	0	0
279.341	0	0
279.563	0	0
279.786	0	0
280.008	0	0
280.23	0	0
280.453	0	0
280.675	0	0
280.897	0	0
281.119	0	0
281.341	0	0
281.563	0	0
281.785	0	0
282.008	0	0
282.23	0	0
282.452	0	0
282.674	0	0
282.896	0	0
283.117	0	0
283.339	0	0
283.561	0	0
283.783	0	0
284.005	0	0
284.227	0	0
284.449	0	0
284.67	0	0
284.892	0	0
285.114	0	0
285.336	0	0
285.557	0	0
285.779	0	0
286	0	0
286.222	0	0
286.444	0	0
286.665	0	0
286.887	0	0
287.108	0	0
287.33	0	0
287.551	0	0
287.772	0	0
287.994	0	0
288.215	0	0
288.437	0	0
288.658	0	0
288.879	0	0
289.1	0	0
289.322	0	0
289.543	0	0
289.764	0	0
289.985	0	0
290.206	0	0
290.427	0	0
290.649	0	0
290.87	0	0
291.091	0	0
291.312	0	0
291.533	0	0
291.754	0	0
291.974	0	0
292.195	0	0
292.416	0	0
292.637	0	0
292.858	0	0
293.079	0	0
293.3	0	0
293.52	0	0
293.741	0	0
293.962	0	0
294.182	0	0
294.403	0	0
294.624	0	0
294.844	0	0
295.065	0	0
295.286	0	0
295.506	0	0
295.727	0	0
295.947	0	0
296.168	0	0
296.388	0	0
296.608	0	0
296.829	0	0
297.049	0	0
297.269	0	0
297.49	0	0
297.71	0	0
297.93	0	0
298.151	0	0
298.371	0	0
298.591	0	0
298.811	0	0
299.031	0	0
299.251	0	0
299.471	0	0
299.691	0	0
299.911	0	0
300.132	0	0
300.352	0	0
300.571	0	0
300.791	0	0
301.011	0	0
301.231	0	0
301.451	0	0
301.671	0	0
301.891	0	0
302.11	0	0
302.33	0	0
302.55	0	0
302.77	0	0
302.989	0	0
303.209	0	0
303.429	0	0
303.648	0	0
303.868	0	0
304.087	0	0
304.307	0	0
304.526	0	0
304.746	0	0
304.965	0	0
305.185	0	0
305.404	0	0
305.624	0	0
305.843	0	0
306.062	0	0
306.282	0	0
306.501	0	0
306.72	0	0
306.939	0	0
307.159	0	0
307.378	0	0
307.597	0	0
307.816	0	0
308.035	0	0
308.254	0	0
308.473	0	0
308.692	0	0
308.911	0	0
309.13	0	0
309.349	0	0
309.568	0	0
309.787	0	0
310.006	0	0
310.225	0	0
310.444	0	0
310.662	0	0
310.881	0	0
311.1	0	0
311.319	0	0
311.537	0	0
311.756	0	0
311.975	0	0
312.193	0	0
312.412	0	0
312.631	0	0
312.849	0	0
313.068	0	0
313.286	0	0
313.505	0	0
313.723	0	0
313.941	0	0
314.16	0	0
314.378	0	0
314.597	0	0
314.815	0	0
315.033	0	0
315.252	0	0
315.47	0	0
315.688	0	0
315.906	0	0
316.124	0	0
316.343	0	0
316.561	0	0
316.779	0	0
316.997	0	0
317.215	0	0
317.433	0	0
317.651	0	0
317.869	0	0
318.087	0	0
318.305	0	0
318.523	0	0
318.741	0	0
318.958	0	0
319.176	0	0
319.394	0	0
319.612	0	0
319.83	0	0
320.047	0	0
320.265	0	0
320.483	0	0
320.7	0	0
320.918	0	0
321.136	0	0
321.353	0	0
321.571	0	0
321.788	0	0
322.006	0	0
322.223	0	0
322.441	0	0
322.658	0	0
322.875	0	0
323.093	0	0
323.31	0	0
323.528	0	0
323.745	0	0
323.962	0	0
324.179	0	0
324.397	0	0
324.614	0	0
324.831	0	0
325.048	0	0
325.265	0	0
325.482	0	0
325.699	0	0
325.916	0	0
326.133	0	0
326.35	0	0
326.567	0	0
326.784	0	0
327.001	0	0
327.218	0	0
327.435	0	0
327.652	0	0
327.869	0	0
328.086	0	0
328.302	0	0
328.519	0	0
328.736	0	0
328.953	0	0
329.169	0	0
329.386	0	0
329.602	0	0
329.819	0	0
330.036	0	0
330.252	0	0
330.469	0	0
330.685	0	0
330.902	0	0
331.118	0	0
331.335	0	0
331.551	0	0
331.767	0	0
331.984	0	0
332.2	0	0
332.416	0	0
332.633	0	0
332.849	0	0
333.065	0	0
333.281	0	0
333.497	0	0
333.714	0	0
333.93	0	0
334.146	0	0
334.362	0	0
334.578	0	0
334.794	0	0
335.01	0	0
335.226	0	0
335.442	0	0
335.658	0	0
335.874	0	0
336.09	0	0
336.305	0	0
336.521	0	0
336.737	0	0
336.953	0	0
337.168	0	0
337.384	0	0
337.6	0	0
337.816	0	0
338.031	0	0
338.247	0	0
338.462	0	0
338.678	0	0
338.894	0	0
339.109	0	0
339.325	0	0
339.54	0	0
339.755	0	0
339.971	0	0
340.186	0	0
340.402	0	0
340.617	0	0
340.832	0	0
341.048	0	0
341.263	0	0
341.478	0	0
341.693	0	0
341.909	0	0
342.124	0	0
342.339	0	0
342.554	0	0
342.769	0	0
342.984	0	0
343.199	0	0
343.414	0	0
343.629	0	0
343.844	0	0
344.059	0	0
344.274	0	0
344.489	0	0
344.704	0	0
344.919	0	0
345.133	0	0
345.348	0	0
345.563	0	0
345.778	0	0
345.992	0	0
346.207	0	0
346.422	0	0
346.636	0	0
346.851	0	0
347.066	0	0
347.28	0	0
347.495	0	0
347.709	0	0
347.924	0	0
348.138	0	0
348.353	0	0
348.567	0	0
348.782	0	0
348.996	0	0
349.21	0	0
349.425	0	0
349.639	0	0
349.853	0	0
350.067	0	0
350.282	0	0
350.496	0	0
350.71	0	0
350.924	0	0
351.138	0	0
351.352	0	0
351.566	0	0
351.78	0	0
351.994	0	0
352.208	0	0
352.422	0	0
352.636	0	0
352.85	0	0
353.064	0	0
353.278	0	0
353.492	0	0
353.706	0	0
353.919	0	0
354.133	0	0
354.347	0	0
354.561	0	0
354.774	0	0
354.988	0	0
355.202	0	0
355.415	0	0
355.629	0	0
355.842	0	0
356.056	0	0
356.269	0	0
356.483	0	0
356.696	0	0
356.91	0	0
357.123	0	0
357.337	0	0
357.55	0	0
357.763	0	0
357.977	0	0
358.19	0	0
358.403	0	0
358.616	0	0
358.83	0	0
359.043	0	0
359.256	0	0
359.469	0	0
359.682	0	0
359.895	0	0
360.108	0	0
360.321	0	0
360.534	0	0
360.747	0	0
360.96	0	0
361.173	0	0
361.386	0	0
361.599	0	0
361.812	0	0
362.025	0	0
362.238	0	0
362.45	0	0
362.663	0	0
362.876	0	0
363.089	0	0
363.301	0	0
363.514	0	0
363.727	0	0
363.939	0	0
364.152	0	0
364.364	0	0
364.577	0	0
364.789	0	0
365.002	0	0
365.214	0	0
365.427	0	0
365.639	0	0
365.852	0	0
366.064	0	0
366.276	0	0
366.489	0	0
366.701	0	0
366.913	0	0
367.125	0	0
367.338	0	0
367.55	0	0
367.762	0	0
367.974	0	0
368.186	0	0
368.398	0	0
368.61	0	0
368.822	0	0
369.034	0	0
369.246	0	0
369.458	0	0
369.67	0	0
369.882	0	0
370.094	0	0
370.306	0	0
370.518	0	0
370.73	0	0
370.941	0	0
371.153	0	0
371.365	0	0
371.577	0	0
371.788	0	0
372	0	0
372.212	0	0
372.423	0	0
372.635	0	0
372.846	0	0
373.058	0	0
373.269	0	0
373.481	0	0
373.692	0	0
373.904	0	0
374.115	0	0
374.327	0	0
374.538	0	0
374.749	0	0
374.961	0	0
375.172	0	0
375.383	0	0
375.594	0	0
375.805	0	0
376.017	0	0
376.228	0	0
376.439	0	0
376.65	0	0
376.861	0	0
377.072	0	0
377.283	0	0
377.494	0	0
377.705	0	0
377.916	0	0
378.127	0	0
378.338	0	0
378.549	0	0
378.76	0	0
378.971	0	0
379.181	0	0
379.392	0	0
379.603	0	0
379.814	0	0
380.024	0	0
380.235	0	0
380.446	0	0
380.656	0	0
380.867	0	0
381.078	0	0
381.288	0	0
381.499	0	0
381.709	0	0
381.92	0	0
382.13	0	0
382.34	0	0
382.551	0	0
382.761	0	0
382.972	0	0
383.182	0	0
383.392	0	0
383.603	0	0
383.813	0	0
384.023	0	0
384.233	0	0
384.443	0	0
384.654	0	0
384.864	0	0
385.074	0	0
385.284	0	0
385.494	0	0
385.704	0	0
385.914	0	0
386.124	0	0
386.334	0	0
386.544	0	0
386.754	0	0
386.964	0	0
387.173	0	0
387.383	0	0
387.593	0	0
387.803	0	0
388.013	0	0
388.222	0	0
388.432	0	0
388.642	0	0
388.851	0	0
389.061	0	0
389.271	0	0
389.48	0	0
389.69	0	0
389.899	0	0
390.109	0	0
390.318	0	0
390.528	0	0
390.737	0	0
390.947	0	0
391.156	0	0
391.365	0	0
391.575	0	0
391.784	0	0
391.993	0	0
392.202	0	0
392.412	0	0
392.621	0	0
392.83	0	0
393.039	0	0
393.248	0	0
393.457	0	0
393.666	0	0
393.876	0	0
394.085	0	0
394.294	0	0
394.503	0	0
394.711	0	0
394.92	0	0
395.129	0	0
395.338	0	0
395.547	0	0
395.756	0	0
395.965	0	0
396.173	0	0
396.382	0	0
396.591	0	0
396.8	0	0
397.008	0	0
397.217	0	0
397.426	0	0
397.634	0	0
397.843	0	0
398.051	0	0
398.26	0	0
398.468	0	0
398.677	0	0
398.885	0	0
399.094	0	0
399.302	0	0
399.51	0	0
399.719	0	0
399.927	0	0
400.135	0	0
400.344	0	0
400.552	0	0
400.76	0	0
400.968	0	0
401.176	0	0
401.385	0	0
401.593	0	0
401.801	0	0
402.009	0	0
402.217	0	0
402.425	0	0
402.633	0	0
402.841	0	0
403.049	0	0
403.257	0	0
403.465	0	0
403.673	0	0
403.88	0	0
404.088	0	0
404.296	0	0
404.504	0	0
404.712	0	0
404.919	0	0
405.127	0	0
405.335	0	0
405.542	0	0
405.75	0	0
405.958	0	0
406.165	0	0
406.373	0	0
406.58	0	0
406.788	0	0
406.995	0	0
407.203	0	0
407.41	0	0
407.617	0	0
407.825	0	0
408.032	32.6539	32.3636
408.239	35.8917	32.4598
408.447	34.8933	33.6268
408.654	34.3299	33.0469
408.861	33.879	34.3417
409.068	33.4822	32.7286
409.276	34.3912	34.0121
409.483	35.9242	35.9502
409.69	35.1419	33.788
409.897	36.3973	37.236
410.104	36.5822	35.1795
410.311	37.7098	35.7411
410.518	38.3856	36.166
410.725	37.6598	36.2515
410.932	38.5388	36.1219
411.139	37.3991	36.8844
411.346	36.9853	36.104
411.553	40.4856	38.6269
411.76	38.3376	35.7318
411.967	38.8543	36.8751
412.174	38.5378	37.8324
412.381	39.7569	37.64
412.587	37.6798	36.6708
412.794	40.8927	39.1524
413.001	40.3437	37.5055
413.208	41.0076	37.6771
413.414	40.1498	37.9465
413.621	41.2917	38.3325
413.828	41.7166	38.3368
414.034	40.4284	37.7778
414.241	40.6528	38.5354
414.447	42.0415	39.9545
414.654	41.1959	39.4243
414.86	41.7742	38.6802
415.067	41.8621	39.6934
415.273	42.4836	39.8199
415.48	41.1359	39.4852
415.686	41.9275	39.6238
415.893	42.8406	39.329
416.099	42.9001	39.7328
416.305	43.3182	39.8949
416.512	42.2598	39.7579
416.718	42.7771	39.6681
416.924	42.8437	40.567
417.131	43.1551	40.7129
417.337	42.8818	39.7404
417.543	43.1246	40.6714
417.749	44.7832	40.5961
417.955	43.9265	39.7712
418.161	43.6054	40.3139
418.367	43.6365	40.3126
418.574	43.935	41.2261
418.78	43.5971	40.3797
418.986	44.4804	40.8821
419.192	44.3241	41.5759
419.398	44.877	40.9446
419.604	44.0052	40.5029
419.809	44.2916	40.5371
420.015	44.9016	41.3564
420.221	45.3729	41.3102
420.427	44.6423	41.4455
420.633	45.4944	41.2126
420.839	45.514	41.9393
421.044	45.415	41.2928
421.25	44.9017	41.3162
421.456	45.3558	41.2047
421.662	45.5392	41.2291
421.867	46.003	41.7619
422.073	45.6379	41.6976
422.278	45.5656	41.9051
422.484	45.782	41.7506
422.69	45.6724	41.6922
422.895	46.4046	41.6733
423.101	46.2318	41.7042
423.306	45.814	41.5846
423.512	45.9773	42.0961
423.717	45.9901	40.9571
423.922	46.4181	41.6395
424.128	45.7836	41.83
424.333	46.228	41.9169
424.539	46.7247	41.778
424.744	46.6788	42.3134
424.949	46.5047	41.9767
425.154	46.9999	42.3461
425.36	46.6195	42.0337
425.565	46.8583	41.9945
425.77	46.6648	41.9629
425.975	47.0324	42.1802
426.18	46.8413	41.9639
426.385	46.7811	42.0463
426.591	46.9028	42.3443
426.796	47.2821	42.7116
427.001	47.0704	42.4192
427.206	47.285	42.4444
427.411	47.3356	42.3834
427.616	47.2442	42.2274
427.821	47.5865	42.5801
428.026	47.4057	42.1136
428.23	47.6671	42.6427
428.435	47.5549	42.5077
428.64	47.5164	42.5448
428.845	47.4829	42.6241
429.05	47.456	42.3823
429.254	47.9206	42.5094
429.459	47.7007	42.7346
429.664	48.063	42.8957
429.869	47.7692	42.7276
430.073	47.7679	42.5848
430.278	47.9365	42.6649
430.483	47.9024	42.8018
430.687	48.0475	42.9231
430.892	48.0359	42.7029
431.096	48.0728	42.9233
431.301	48.1562	42.9392
431.505	48.1117	42.734
431.71	48.2324	42.8631
431.914	48.1787	42.7236
432.118	48.222	42.8627
432.323	48.343	42.9268
432.527	48.0662	42.6701
432.732	48.4782	42.8457
432.936	48.6734	42.8146
433.14	48.4392	43.0604
433.344	48.6032	42.9261
433.549	48.8153	42.9202
433.753	48.5729	42.7964
433.957	48.529	42.8766
434.161	48.7202	42.6923
434.365	48.6059	42.9144
434.57	48.808	42.5947
434.774	48.6642	42.6005
434.978	48.9031	42.578
435.182	48.6757	42.3896
435.386	48.9728	42.6976
435.59	48.7862	42.206
435.794	49.0694	42.7982
435.998	48.8239	42.5492
436.201	49.0929	42.7225
436.405	49.2341	42.9092
436.609	49.0024	42.9156
436.813	49.1722	42.9245
437.017	49.1852	43.1388
437.221	49.3414	43.2924
437.424	49.4831	43.321
437.628	49.4686	43.3177
437.832	49.3555	43.5124
438.036	49.3468	43.3482
438.239	49.5789	43.6887
438.443	49.5656	43.6257
438.646	49.7397	43.7512
438.85	49.6243	43.7014
439.054	49.7763	43.9783
439.257	49.8833	44.1495
439.461	49.9424	44.1503
439.664	49.9674	44.0699
439.868	49.884	44.3045
440.071	49.907	44.3371
440.274	50.1462	44.5657
440.478	49.9927	44.5443
440.681	50.0863	44.6885
440.885	50.1905	44.6932
441.088	50.2403	44.8211
441.291	50.3376	45.0711
441.494	50.2945	45.1986
441.698	50.2645	45.2621
441.901	50.4689	45.4835
442.104	50.5298	45.6663
442.307	50.571	45.6195
442.51	50.6801	45.9618
442.713	50.6469	46.014
442.916	50.6012	46.1366
443.12	50.581	46.0951
443.323	50.5773	46.416
443.526	50.7252	46.5931
443.729	50.8227	46.5618
443.932	50.7875	46.9353
444.134	50.8402	46.8722
444.337	50.9128	47.0629
444.54	50.8491	47.0292
444.743	51.0538	47.2222
444.946	50.8166	47.477
445.149	51.0953	47.481
445.352	51.016	47.6241
445.554	50.9655	47.6916
445.757	50.9147	47.6411
445.96	51.0571	48.0133
446.162	51.1332	48.0582
446.365	50.9446	48.0719
446.568	51.0315	48.0505
446.77	51.0151	48.138
446.973	51.0327	48.1844
447.175	50.9964	48.4807
447.378	51.1191	48.3179
447.58	51.0584	48.3368
447.783	50.9951	48.4788
447.985	51.0766	48.2734
448.188	51.177	48.7034
448.39	51.0527	48.4731
448.593	50.9016	48.4067
448.795	51.2309	48.4472
448.997	51.2062	48.4994
449.2	50.9843	48.4909
449.402	50.9577	48.3068
449.604	50.9075	48.4091
449.806	51.107	48.4848
450.009	50.8583	48.4572
450.211	50.9615	48.4961
450.413	51.1913	48.3532
450.615	51.0613	48.3073
450.817	51.0039	48.1454
451.019	50.8242	47.9583
451.221	50.9533	48.1091
451.423	51.0007	47.9887
451.625	50.7104	47.7697
451.827	50.8302	47.7549
452.029	50.8139	47.7202
452.231	50.776	47.6387
452.433	50.777	47.6954
452.635	50.6422	47.6243
452.837	50.6576	47.5988
453.039	50.8806	47.5178
453.24	50.8278	47.4453
453.442	50.7952	47.2557
453.644	50.7833	47.3825
453.846	50.7812	47.0998
454.047	50.6236	47.3107
454.249	50.755	47.2443
454.451	50.7682	47.1817
454.652	50.5451	47.2546
454.854	50.9133	47.1125
455.056	50.5996	47.2041
455.257	50.6803	47.1215
455.459	50.4614	46.8207
455.66	50.6494	47.1808
455.862	50.3283	47.0312
456.063	50.6246	47.2911
456.265	50.5483	46.9467
456.466	50.5732	47.2268
456.667	50.6747	47.2026
456.869	50.6719	47.0726
457.07	50.6268	47.0374
457.271	50.5619	47.1612
457.473	50.6124	47.1548
457.674	50.5911	47.1601
457.875	50.7316	46.9469
458.076	50.2411	47.2043
458.277	50.3704	47.121
458.479	50.4872	47.5005
458.68	50.4101	47.1516
458.881	50.279	47.1382
459.082	50.4386	47.1221
459.283	50.5822	47.1166
459.484	50.4113	47.2599
459.685	50.3011	47.2926
459.886	50.1849	47.2479
460.087	50.3466	47.4215
460.288	50.2652	47.1944
460.489	50.0689	47.256
460.69	50.1249	47.4834
460.89	50.3119	47.2671
461.091	50.2988	47.3628
461.292	50.1249	47.1976
461.493	50.3543	47.4788
461.694	50.0703	47.1637
461.894	50.069	47.1954
462.095	49.6628	46.9445
462.296	50.0198	47.0979
462.496	50.048	47.2166
462.697	49.8363	47.241
462.898	49.7258	46.9553
463.098	49.4714	46.9117
463.299	49.7652	46.7944
463.499	49.6158	46.6828
463.7	49.8827	46.8545
463.9	49.6211	46.7348
464.101	49.9156	47.0522
464.301	49.5568	46.7634
464.501	49.5791	47.0571
464.702	49.351	46.218
464.902	49.1303	46.7197
465.103	49.5016	46.3935
465.303	49.4047	46.1445
465.503	49.3854	46.185
465.703	49.2118	45.9092
465.904	49.2834	46.1982
466.104	48.9085	46.1451
466.304	48.9107	45.7407
466.504	49.0721	46.0784
466.704	49.1666	45.7356
466.904	48.9127	45.785
467.104	48.7556	45.5909
467.304	48.8507	45.738
467.504	48.7922	45.7619
467.704	48.4384	45.2349
467.904	48.6033	45.4084
468.104	48.7857	45.5496
468.304	48.6235	45.2335
468.504	48.3411	44.8223
468.704	48.4912	44.9957
468.904	48.3816	44.9727
469.104	48.2751	44.9099
469.304	48.0946	44.779
469.503	48.053	44.6209
469.703	48.1964	44.5397
469.903	47.8632	44.543
470.103	48.2422	44.5032
470.302	47.8693	44.5673
470.502	48.1768	44.5158
470.701	47.8477	44.3488
470.901	47.9484	44.3237
471.101	47.7464	44.1333
471.3	47.8023	44.1987
471.5	47.5444	43.9703
471.699	47.4549	43.9476
471.899	47.5018	43.9424
472.098	47.1591	44.0146
472.298	47.1899	43.8186
472.497	47.1523	43.8814
472.696	47.3251	43.5944
472.896	46.9257	43.6881
473.095	47.1065	43.7964
473.294	46.834	43.5794
473.494	46.7118	43.4145
473.693	46.7577	43.2365
473.892	46.7717	43.4597
474.091	46.7604	43.2368
474.29	46.4973	43.2506
474.49	46.1237	42.9818
474.689	46.3373	43.2205
474.888	46.4451	43.0925
475.087	46.197	42.9382
475.286	46.2639	42.7183
475.485	46.0705	42.7568
475.684	46.1034	42.8203
475.883	46.1462	42.5713
476.082	46.0365	42.3773
476.281	45.955	42.3503
476.48	45.7822	42.3995
476.678	45.5577	42.3341
476.877	45.5862	42.2763
477.076	45.676	42.2258
477.275	45.5329	42.0439
477.474	45.4244	41.8953
477.672	45.3779	41.9985
477.871	45.1533	41.7525
478.07	45.0134	41.7698
478.269	45.0932	41.8342
478.467	45.0863	41.6207
478.666	45.1966	41.6433
478.864	45.0194	41.7731
479.063	44.6027	41.3602
479.262	44.4253	41.449
479.46	44.5161	41.2643
479.659	44.8619	41.2161
479.857	44.3767	41.0086
480.055	44.3591	41.1661
480.254	44.1793	41.0577
480.452	44.3429	40.8657
480.651	44.2131	40.7984
480.849	44.043	40.7144
481.047	43.8808	40.573
481.246	43.8894	40.1845
481.444	43.7168	40.3238
481.642	43.6447	40.4211
481.84	43.4669	40.4666
482.039	43.4013	40.1888
482.237	43.4189	40.1005
482.435	43.4449	39.843
482.633	43.152	39.8184
482.831	43.0179	40.0238
483.029	43.0125	39.6391
483.227	42.8835	39.651
483.425	42.8374	39.5656
483.623	42.8146	39.6114
483.821	42.6156	39.3909
484.019	42.4333	39.1573
484.217	42.4122	39.2506
484.415	42.2172	39.2802
484.613	42.0706	39.0499
484.811	42.18	39.1633
485.008	42.0438	38.8758
485.206	41.9501	38.8512
485.404	41.7116	38.6902
485.602	41.7568	38.7334
485.799	41.6739	38.5588
485.997	41.5869	38.6651
486.195	41.4738	38.4241
486.392	41.4678	38.3806
486.59	41.3023	38.5109
486.788	41.0222	38.3183
486.985	41.2706	38.3775
487.183	40.9511	38.0942
487.38	40.6918	37.9685
487.578	40.6262	37.9287
487.775	40.7245	38.0056
487.973	40.5331	37.7808
488.17	40.4243	37.7078
488.367	40.4099	37.7098
488.565	40.1422	37.5317
488.762	40.11	37.5289
488.959	40.0211	37.5966
489.157	39.9483	37.4126
489.354	39.9839	37.1426
489.551	39.8882	37.383
489.749	39.6568	37.2083
489.946	39.5739	37.0544
490.143	39.4874	36.9807
490.34	39.3211	36.8962
490.537	39.2867	36.9773
490.734	39.3284	36.6224
490.931	39.1205	36.7281
491.128	39.1845	36.6933
491.325	38.8794	36.5145
491.522	38.9912	36.5537
491.719	38.5844	36.4432
491.916	38.6292	36.2383
492.113	38.4579	36.2851
492.31	38.5435	36.0905
492.507	38.4005	36.1142
492.704	38.353	35.9472
492.901	38.2689	35.8332
493.097	37.879	35.7385
493.294	37.7763	35.7646
493.491	37.8071	35.632
493.688	37.8876	35.6652
493.884	37.6485	35.6442
494.081	37.3178	35.403
494.278	37.4448	35.3491
494.474	37.251	35.3521
494.671	37.226	35.2301
494.867	37.1304	35.2777
495.064	37.1128	35.0305
495.26	36.7997	34.9959
495.457	36.8893	34.899
495.653	36.5405	34.8032
495.85	36.628	34.7911
496.046	36.4771	34.6403
496.243	36.3139	34.6421
496.439	36.3316	34.6567
496.635	36.2565	34.3326
496.832	36.0114	34.2391
497.028	35.9317	34.2252
497.224	35.8807	34.1806
497.42	35.7	34.1961
497.617	35.6721	34.0479
497.813	35.5291	33.8974
498.009	35.4187	33.9291
498.205	35.2074	33.8771
498.401	35.1364	33.7512
498.597	35.0606	33.6686
498.793	35.0742	33.6167
498.989	35.0186	33.3658
499.185	34.832	33.554
499.381	34.7649	33.3016
499.577	34.5265	33.2595
499.773	34.3474	33.2866
499.969	34.3743	33.1393
500.165	34.1367	32.8832
500.361	34.0233	32.9397
500.557	34.073	32.8297
500.753	33.8707	32.7407
500.948	33.8144	32.7732
501.144	33.6887	32.5416
501.34	33.5668	32.5367
501.536	33.5023	32.4185
501.731	33.4899	32.3773
501.927	33.3227	32.1843
502.123	33.2467	32.1525
502.318	32.976	31.99
502.514	33.0522	32.0477
502.709	32.7002	31.7625
502.905	32.7506	31.915
503.1	32.597	31.6886
503.296	32.6496	31.7113
503.491	32.489	31.5095
503.687	32.3576	31.4928
503.882	32.1957	31.5236
504.078	32.1565	31.2985
504.273	32.1787	31.2363
504.468	32.0018	31.1863
504.664	31.8979	30.9627
504.859	31.762	30.9572
505.054	31.6104	30.9691
505.249	31.5477	30.767
505.445	31.2776	30.772
505.64	31.4008	30.6904
505.835	31.0541	30.6296
506.03	31.2595	30.5486
506.225	31.0909	30.5054
506.42	30.9408	30.5539
506.615	30.7252	30.2471
506.81	30.6849	30.3456
507.005	30.5548	30.143
507.2	30.4873	30.0707
507.395	30.3118	30.0639
507.59	30.3026	30.0283
507.785	30.1965	29.7165
507.98	30.0673	29.7831
508.175	29.859	29.7072
508.37	29.9186	29.6993
508.564	29.7157	29.4721
508.759	29.6411	29.4379
508.954	29.5374	29.1322
509.149	29.4179	29.2183
509.343	29.3847	29.195
509.538	29.2359	29.038
509.733	29.1887	29.0309
509.927	29.1284	28.886
510.122	28.9132	28.8346
510.317	28.7676	28.7398
510.511	28.6642	28.7075
510.706	28.6094	28.6115
510.9	28.6308	28.4894
511.095	28.3785	28.4205
511.289	28.2414	28.2886
511.484	28.1981	28.3393
511.678	28.1332	28.1702
511.872	28.049	28.2515
512.067	27.897	28.0148
512.261	27.856	28.1328
512.455	27.7049	27.8094
512.65	27.6569	27.826
512.844	27.5307	27.7332
513.038	27.4866	27.7482
513.232	27.2898	27.558
513.427	27.299	27.3711
513.621	27.1551	27.3792
513.815	27.1099	27.2166
514.009	26.8363	27.1611
514.203	26.8051	27.1698
514.397	26.8725	27.1306
514.591	26.7377	27.1395
514.785	26.5397	26.8701
514.979	26.457	26.8337
515.173	26.4172	26.7758
515.367	26.3049	26.669
515.561	26.2193	26.6876
515.755	26.0721	26.4709
515.949	26.0339	26.4252
516.142	25.8329	26.4542
516.336	25.852	26.3338
516.53	25.6811	26.2724
516.724	25.5589	26.1515
516.917	25.5876	26.149
517.111	25.439	25.9701
517.305	25.3661	25.9765
517.499	25.2676	25.9095
517.692	25.3077	25.8131
517.886	25.0446	25.7314
518.079	25.0041	25.6533
518.273	24.843	25.5899
518.466	24.935	25.5425
518.66	24.7124	25.2859
518.853	24.6406	25.3015
519.047	24.5575	25.3267
519.24	24.5169	25.3351
519.434	24.4009	25.0513
519.627	24.2914	24.9966
519.82	24.2324	24.9578
520.014	24.0488	24.8551
520.207	24.0048	24.8381
520.4	23.9842	24.7052
520.594	23.8809	24.5748
520.787	23.7689	24.5588
520.98	23.6815	24.5412
521.173	23.552	24.379
521.366	23.4786	24.309
521.56	23.4115	24.2531
521.753	23.2614	24.299
521.946	23.2824	24.1272
522.139	23.1646	24.0478
522.332	23.1809	23.9923
522.525	22.9643	23.8523
522.718	22.8632	23.8585
522.911	22.8534	23.7726
523.104	22.5777	23.6917
523.297	22.6138	23.7199
523.489	22.5014	23.4927
523.682	22.3583	23.4722
523.875	22.3049	23.431
524.068	22.3316	23.3993
524.261	22.1943	23.1878
524.453	22.0696	23.1423
524.646	22.0593	23.2271
524.839	21.972	23.1682
525.031	21.9275	22.9021
525.224	21.7368	22.8971
525.417	21.6753	22.8151
525.609	21.6064	22.6493
525.802	21.4255	22.6385
525.995	21.3955	22.6127
526.187	21.3556	22.5986
526.38	21.2585	22.481
526.572	21.1799	22.4246
526.765	21.0792	22.307
526.957	20.9942	22.2468
527.149	20.944	22.2035
527.342	20.8849	22.1403
527.534	20.8618	22.0207
527.726	20.7536	21.9628
527.919	20.6277	21.8701
528.111	20.4771	21.8577
528.303	20.3684	21.6931
528.495	20.3207	21.6552
528.688	20.2275	21.6221
528.88	20.1495	21.5222
529.072	20.0523	21.4924
529.264	20.0161	21.435
529.456	19.9034	21.2388
529.648	19.8846	21.2745
529.84	19.8189	21.1252
530.032	19.73	21.1276
530.224	19.5531	21.0311
530.416	19.6277	20.907
530.608	19.4225	20.8323
530.8	19.408	20.8832
530.992	19.2823	20.6858
531.184	19.284	20.7366
531.376	19.0698	20.5637
531.568	19.0872	20.5187
531.759	19.0462	20.5023
531.951	19.0191	20.4112
532.143	18.8776	20.3284
532.335	18.7379	20.2636
532.526	18.67	20.2349
532.718	18.7547	20.1449
532.91	18.5356	20.121
533.101	18.5018	20.0478
533.293	18.3848	20.0019
533.484	18.3846	19.8876
533.676	18.2131	19.8345
533.868	18.1949	19.8107
534.059	18.1591	19.7546
534.251	18.0284	19.7109
534.442	17.8308	19.5122
534.633	17.8226	19.46
534.825	17.6764	19.4283
535.016	17.7047	19.396
535.208	17.6668	19.244
535.399	17.5355	19.2268
535.59	17.4723	19.1245
535.781	17.3715	19.1087
535.973	17.2845	18.996
536.164	17.2691	19.0462
536.355	17.25	18.8377
536.546	17.2259	18.9638
536.737	17.0225	18.7786
536.929	16.9792	18.6501
537.12	16.9001	18.714
537.311	16.9069	18.5789
537.502	16.793	18.5636
537.693	16.7941	18.6077
537.884	16.5649	18.4324
538.075	16.5431	18.3015
538.266	16.4671	18.2681
538.457	16.5182	18.2463
538.648	16.4534	18.1744
538.838	16.3699	18.0132
539.029	16.2227	18.0253
539.22	16.2204	18.061
539.411	16.1192	17.9178
539.602	16.0648	17.8735
539.792	16.0446	17.8232
539.983	15.9036	17.79
540.174	15.8784	17.6204
540.365	15.8051	17.6275
540.555	15.5992	17.523
540.746	15.6225	17.4514
540.936	15.5535	17.3005
541.127	15.4416	17.3013
541.317	15.4212	17.2958
541.508	15.436	17.249
541.698	15.2488	17.0859
541.889	15.2328	17.0297
542.079	15.0558	16.9869
542.27	15.0923	16.9434
542.46	14.9937	16.8453
542.651	14.9634	16.8735
542.841	14.9044	16.7729
543.031	14.8899	16.802
543.222	14.7874	16.6889
543.412	14.7535	16.4651
543.602	14.6694	16.5063
543.792	14.5958	16.503
543.982	14.6017	16.4063
544.173	14.4516	16.3919
544.363	14.4137	16.3871
544.553	14.3587	16.2558
544.743	14.3135	16.1755
544.933	14.3118	16.0819
545.123	14.2127	16.0725
545.313	14.1645	16.1187
545.503	14.1236	15.9693
545.693	14.0324	15.9574
545.883	13.9637	16.0142
546.073	13.8621	15.8546
546.263	13.8714	15.8235
546.453	13.7943	15.7208
546.643	13.7283	15.6173
546.832	13.6651	15.6424
547.022	13.5892	15.6511
547.212	13.6165	15.7193
547.402	13.4122	15.4881
547.591	13.4827	15.5142
547.781	13.3949	15.4608
547.971	13.3246	15.3542
548.16	13.3395	15.3254
548.35	13.2453	15.2334
548.54	13.1986	15.212
548.729	13.1109	15.2031
548.919	13.0056	15.1032
549.108	12.9517	15.068
549.298	12.9779	15.0288
549.487	12.9107	15.0971
549.677	12.7595	14.8988
549.866	12.7578	14.9266
550.055	12.694	14.8501
550.245	12.7927	14.8211
550.434	12.5578	14.7106
550.623	12.584	14.6343
550.813	12.5099	14.6504
551.002	12.4886	14.6593
551.191	12.4281	14.4904
551.381	12.4611	14.5468
551.57	12.3784	14.4852
551.759	12.3281	14.4085
551.948	12.1957	14.3988
552.137	12.1805	14.4081
552.326	12.0889	14.284
552.515	12.0715	14.2266
552.704	11.9886	14.2018
552.893	11.9248	14.1418
553.082	11.8509	14.1155
553.271	11.9197	14.1792
553.46	11.8165	13.9748
553.649	11.7174	13.9863
553.838	11.7977	13.9942
554.027	11.7737	13.9145
554.216	11.6253	13.8379
554.405	11.6528	13.7948
554.593	11.573	13.7517
554.782	11.5628	13.7635
554.971	11.4268	13.6993
555.16	11.5234	13.6963
555.348	11.37	13.6212
555.537	11.3466	13.6233
555.726	11.2415	13.4497
555.914	11.2447	13.4762
556.103	11.2414	13.4494
556.291	11.1418	13.4201
556.48	11.1203	13.3092
556.668	11.1102	13.334
556.857	11.1359	13.2212
557.045	11.0346	13.2665
557.234	10.973	13.2166
557.422	10.9358	13.2025
557.611	10.9297	13.1288
557.799	10.8659	13.1189
557.987	10.793	13.046
558.176	10.7394	12.9918
558.364	10.7399	13.0357
558.552	10.727	12.9998
558.74	10.724	12.9523
558.929	10.707	12.8988
559.117	10.5974	12.8196
559.305	10.499	12.776
559.493	10.5376	12.7697
559.681	10.5209	12.7675
559.869	10.4354	12.7398
560.057	10.4313	12.6193
560.245	10.361	12.6186
560.433	10.3449	12.6369
560.621	10.2971	12.4767
560.809	10.277	12.5574
560.997	10.206	12.5487
561.185	10.2024	12.4437
561.373	10.1418	12.444
561.561	10.112	12.3805
561.749	10.1428	12.3388
561.937	10.1073	12.3584
562.124	10.0552	12.2989
562.312	9.95808	12.2763
562.5	9.89016	12.2044
562.688	9.92672	12.225
562.875	9.95523	12.1557
563.063	9.82446	12.1332
563.251	9.86469	12.0663
563.438	9.77809	12.0405
563.626	9.78858	12.0395
563.813	9.73336	11.9509
564.001	9.57406	11.9423
564.188	9.67288	11.9569
564.376	9.67011	11.8964
564.563	9.59073	11.8048
564.751	9.6281	11.8496
564.938	9.59288	11.8196
565.126	9.54503	11.7539
565.313	9.54295	11.755
565.5	9.46134	11.7014
565.688	9.48058	11.6909
565.875	9.39691	11.6596
566.062	9.38808	11.6347
566.249	9.34109	11.6212
566.437	9.29906	11.5962
566.624	9.25115	11.5152
566.811	9.35218	11.5436
566.998	9.25056	11.5038
567.185	9.25376	11.4915
567.372	9.1762	11.3996
567.559	9.1246	11.4225
567.746	9.13718	11.3467
567.933	9.11474	11.3578
568.12	9.11918	11.3553
568.307	9.08222	11.3207
568.494	9.01588	11.3032
568.681	8.98906	11.291
568.868	8.95511	11.2606
569.055	8.91424	11.2151
569.242	8.95366	11.1836
569.429	8.97019	11.0897
569.615	8.97305	11.1562
569.802	8.88774	11.0756
569.989	8.80926	11.0836
570.176	8.86345	11.0511
570.362	8.80064	10.9017
570.549	8.8534	10.9709
570.736	8.72591	10.998
570.922	8.71353	10.9667
571.109	8.77153	10.8793
571.295	8.71728	10.8858
571.482	8.64911	10.7999
571.668	8.65089	10.8844
571.855	8.67595	10.8108
572.041	8.62988	10.8049
572.228	8.57451	10.766
572.414	8.60816	10.7594
572.601	8.58147	10.6511
572.787	8.50112	10.7237
572.973	8.46296	10.6319
573.16	8.49165	10.6556
573.346	8.44364	10.5659
573.532	8.50474	10.6297
573.718	8.44361	10.5723
573.905	8.37852	10.5298
574.091	8.37567	10.5684
574.277	8.36312	10.5065
574.463	8.34675	10.4832
574.649	8.33203	10.4814
574.835	8.3542	10.4285
575.021	8.28875	10.4354
575.207	8.30068	10.3804
575.393	8.24627	10.4003
575.579	8.25791	10.3582
575.765	8.21631	10.3211
575.951	8.13367	10.3106
576.137	8.15352	10.3336
576.323	8.16806	10.2138
576.509	8.15632	10.2553
576.695	8.11045	10.2234
576.88	8.06525	10.1785
577.066	8.12495	10.164
577.252	8.13086	10.2158
577.438	8.01134	10.1688
577.623	8.05624	10.1043
577.809	8.02659	10.1889
577.995	8.00321	10.1588
578.18	7.99776	10.0004
578.366	7.98727	10.0561
578.552	7.95246	10.0682
578.737	7.95158	10.0668
578.923	7.90826	10.0004
579.108	7.95186	9.88926
579.294	7.94624	9.95153
579.479	7.84264	9.95874
579.665	7.79655	9.89401
579.85	7.86221	9.85423
580.035	7.8272	9.88751
580.221	7.84008	9.88164
580.406	7.75144	9.85098
580.591	7.77446	9.83502
580.777	7.80083	9.8034
580.962	7.74552	9.71501
581.147	7.75419	9.76632
581.332	7.74257	9.82661
581.517	7.70107	9.75821
581.703	7.66963	9.69307
581.888	7.65218	9.70302
582.073	7.66551	9.71642
582.258	7.64901	9.65228
582.443	7.63137	9.65375
582.628	7.62823	9.54886
582.813	7.64404	9.57797
582.998	7.59565	9.6077
583.183	7.58582	9.56954
583.368	7.54689	9.54297
583.553	7.53443	9.52486
583.738	7.52364	9.49931
583.923	7.42436	9.45069
584.107	7.48954	9.44038
584.292	7.49314	9.44179
584.477	7.38685	9.456
584.662	7.42264	9.41925
584.846	7.43972	9.39019
585.031	7.38257	9.4226
585.216	7.3787	9.37775
585.4	7.4172	9.30481
585.585	7.32963	9.29448
585.77	7.42888	9.38736
585.954	7.29264	9.2586
586.139	7.34112	9.31253
586.323	7.32689	9.28948
586.508	7.27808	9.27535
586.692	7.2895	9.21462
586.877	7.36537	9.26305
587.061	7.22191	9.15929
587.246	7.23456	9.21244
587.43	7.24122	9.18767
587.614	7.29879	9.09272
587.799	7.19746	9.11931
587.983	7.17193	9.09653
588.167	7.16609	9.15673
588.351	7.19549	9.1215
588.536	7.07049	9.05451
588.72	7.10954	9.11785
588.904	7.07066	9.09105
589.088	7.15966	9.03369
589.272	7.1011	8.98049
589.456	7.1576	9.02553
589.641	7.03563	8.98309
589.825	7.03334	8.94402
590.009	6.98412	8.95119
590.193	7.06395	8.93983
590.377	7.05998	8.89521
590.561	6.99185	8.91351
590.745	7.00116	8.87989
590.928	7.02453	8.88511
591.112	6.97476	8.81133
591.296	7.02079	8.80959
591.48	6.94448	8.89928
591.664	6.96678	8.78361
591.848	6.95015	8.85121
592.031	6.93398	8.83629
592.215	6.87282	8.83159
592.399	6.82945	8.79595
592.582	6.83119	8.75548
592.766	6.89131	8.77115
592.95	6.75497	8.6412
593.133	6.8177	8.676
593.317	6.85713	8.6655
593.5	6.79204	8.67563
593.684	6.7836	8.68881
593.867	6.78066	8.67173
594.051	6.74932	8.66202
594.234	6.79419	8.68992
594.418	6.7399	8.54416
594.601	6.79946	8.59766
594.785	6.73153	8.6384
594.968	6.66769	8.51332
595.151	6.67537	8.50348
595.334	6.72983	8.52487
595.518	6.69751	8.50923
595.701	6.68286	8.47514
595.884	6.63289	8.48701
596.067	6.63835	8.51547
596.251	6.64721	8.51475
596.434	6.61056	8.46834
596.617	6.55761	8.37601
596.8	6.50089	8.46206
596.983	6.50365	8.44921
597.166	6.55847	8.40762
597.349	6.54359	8.36504
597.532	6.53798	8.38945
597.715	6.51284	8.34685
597.898	6.58314	8.38526
598.081	6.48152	8.32753
598.264	6.49534	8.30558
598.447	6.51934	8.27307
598.63	6.41148	8.31828
598.812	6.43723	8.29948
598.995	6.38069	8.26254
599.178	6.4224	8.24419
599.361	6.42559	8.3103
599.543	6.47351	8.20549
599.726	6.40439	8.22088
599.909	6.3808	8.14188
600.091	6.39666	8.18922
600.274	6.36014	8.1479
600.457	6.40088	8.17011
600.639	6.31812	8.14295
600.822	6.33355	8.11995
601.004	6.33251	8.17836
601.187	6.34082	8.09559
601.369	6.30188	8.08761
601.552	6.27577	8.07483
601.734	6.26622	8.09514
601.917	6.25451	8.07974
602.099	6.23564	8.05244
602.281	6.2475	8.02576
602.464	6.19532	7.98824
602.646	6.24755	7.92248
602.828	6.22034	7.99455
603.01	6.19569	7.95146
603.193	6.18504	7.99551
603.375	6.15335	7.98577
603.557	6.17134	7.97706
603.739	6.15396	7.94365
603.921	6.14584	7.90363
604.103	6.17328	7.91373
604.285	6.05072	7.87794
604.467	6.12199	7.96493
604.65	6.08152	7.91124
604.832	6.12372	7.94826
605.013	6.0425	7.8597
605.195	6.07049	7.83165
605.377	6.04994	7.85892
605.559	6.0117	7.82928
605.741	6.05655	7.79804
605.923	6.01735	7.76543
606.105	5.93581	7.78991
606.287	6.02857	7.75495
606.468	6.03327	7.79289
606.65	6.02822	7.79418
606.832	5.9073	7.74884
607.013	5.98837	7.74892
607.195	5.95478	7.74746
607.377	5.9726	7.76037
607.558	5.91525	7.71488
607.74	5.95847	7.6978
607.922	5.91598	7.71752
608.103	5.91578	7.68613
608.285	5.92072	7.67212
608.466	5.87628	7.73562
608.648	5.92473	7.61618
608.829	5.87803	7.69643
609.01	5.8924	7.65238
609.192	5.85507	7.57993
609.373	5.83692	7.54436
609.555	5.87182	7.65447
609.736	5.82952	7.59693
609.917	5.84654	7.56847
610.099	5.91861	7.64361
610.28	5.85241	7.57945
610.461	5.77253	7.5322
610.642	5.78783	7.56641
610.823	5.76161	7.55703
611.004	5.80923	7.56967
611.186	5.75425	7.52334
611.367	5.7537	7.54786
611.548	5.77102	7.53016
611.729	5.79964	7.49216
611.91	5.78562	7.49838
612.091	5.73708	7.55213
612.272	5.77549	7.54069
612.453	5.75348	7.46422
612.634	5.73832	7.49709
612.815	5.76353	7.49641
612.995	5.76493	7.439
613.176	5.68251	7.48224
613.357	5.73343	7.47585
613.538	5.73611	7.47681
613.719	5.66734	7.48622
613.899	5.72392	7.49954
614.08	5.6572	7.43291
614.261	5.72216	7.40834
614.441	5.67288	7.45387
614.622	5.67043	7.39111
614.803	5.65181	7.43045
614.983	5.63448	7.41217
615.164	5.69542	7.402
615.344	5.70927	7.42918
615.525	5.61144	7.44859
615.705	5.6365	7.41452
615.886	5.61379	7.34317
616.066	5.70217	7.42025
616.247	5.64246	7.4414
616.427	5.66374	7.42096
616.607	5.65747	7.38726
616.788	5.69899	7.38195
616.968	5.70235	7.381
617.148	5.65346	7.34061
617.329	5.63775	7.37867
617.509	5.6634	7.43193
617.689	5.65405	7.41763
617.869	5.60377	7.37372
618.049	5.65873	7.38552
618.23	5.67955	7.3912
618.41	5.59017	7.38483
618.59	5.66036	7.42751
618.77	5.6904	7.43732
618.95	5.7101	7.48976
619.13	5.68335	7.42143
619.31	5.7046	7.43112
619.49	5.69852	7.43362
619.67	5.65434	7.3961
619.85	5.67735	7.36224
620.03	5.63011	7.44171
620.209	5.64794	7.41992
620.389	5.71208	7.501
620.569	5.69697	7.47424
620.749	5.67627	7.48056
620.929	5.72719	7.47808
621.108	5.64349	7.40316
621.288	5.66344	7.45336
621.468	5.76306	7.46224
621.647	5.67687	7.50559
621.827	5.75592	7.55482
622.007	5.71432	7.46741
622.186	5.74542	7.5127
622.366	5.73608	7.45165
622.545	5.74122	7.51829
622.725	5.73301	7.53106
622.904	5.78736	7.54251
623.084	5.78488	7.56122
623.263	5.79912	7.59625
623.443	5.77557	7.55455
623.622	5.78038	7.53126
623.802	5.81575	7.55613
623.981	5.85973	7.58691
624.16	5.75273	7.53336
624.339	5.82589	7.58556
624.519	5.79994	7.57573
624.698	5.83445	7.61191
624.877	5.87225	7.61152
625.056	5.86555	7.62712
625.235	5.91716	7.62529
625.415	5.94277	7.67665
625.594	5.89057	7.70989
625.773	5.94744	7.69957
625.952	5.96667	7.73415
626.131	5.97028	7.71627
626.31	5.91328	7.76069
626.489	5.95034	7.6701
626.668	6.05338	7.71414
626.847	6.01713	7.66424
627.026	6.06984	7.73155
627.205	6.09577	7.81768
627.383	6.07663	7.84141
627.562	6.06405	7.82416
627.741	6.11252	7.8225
627.92	6.19503	7.84252
628.099	6.12445	7.8367
628.277	6.13669	7.83602
628.456	6.21523	7.9084
628.635	6.2056	7.95707
628.813	6.18455	7.87886
628.992	6.21575	7.9689
629.171	6.24042	7.98837
629.349	6.27357	7.99408
629.528	6.33713	8.02249
629.706	6.35093	8.08391
629.885	6.39123	8.00241
630.063	6.35379	7.98697
630.242	6.38321	8.01793
630.42	6.50043	8.12637
630.599	6.39257	8.14949
630.777	6.48533	8.17815
630.955	6.4911	8.20435
631.134	6.58318	8.21849
631.312	6.49544	8.20992
631.49	6.62867	8.23926
631.669	6.56976	8.23356
631.847	6.60085	8.28975
632.025	6.60013	8.29464
632.203	6.68105	8.30842
632.381	6.75184	8.36894
632.56	6.75333	8.41365
632.738	6.75014	8.3965
632.916	6.88687	8.43939
633.094	6.79361	8.43902
633.272	6.88756	8.50923
633.45	6.94453	8.50912
633.628	6.92649	8.54664
633.806	6.91594	8.5941
633.984	6.95717	8.57985
634.162	7.03062	8.61889
634.339	7.0342	8.62308
634.517	7.0724	8.72625
634.695	7.1194	8.68498
634.873	7.13254	8.73698
635.051	7.22019	8.83258
635.229	7.21834	8.72607
635.406	7.2286	8.79538
635.584	7.35982	8.88401
635.762	7.32578	8.91115
635.939	7.395	8.91131
636.117	7.38945	9.01041
636.295	7.50233	8.9954
636.472	7.47124	9.01037
636.65	7.53725	9.04908
636.827	7.61178	9.13448
637.005	7.59271	9.13513
637.182	7.66848	9.20736
637.36	7.69933	9.15901
637.537	7.83239	9.17013
637.715	7.81024	9.22289
637.892	7.79644	9.39345
638.069	7.80819	9.35243
638.247	7.95347	9.33018
638.424	7.94143	9.41946
638.601	8.02269	9.42249
638.778	8.05743	9.56168
638.956	8.1494	9.54635
639.133	8.18644	9.61732
639.31	8.29485	9.66962
639.487	8.22811	9.64969
639.664	8.3284	9.65868
639.841	8.44517	9.74319
640.019	8.44487	9.79016
640.196	8.5279	9.84942
640.373	8.5103	9.8343
640.55	8.59472	9.8858
640.727	8.62226	9.92866
640.904	8.64926	10.0661
641.081	8.76458	10.091
641.257	8.74278	10.0907
641.434	8.91914	10.1608
641.611	8.92553	10.2261
641.788	8.97853	10.2682
641.965	9.08787	10.3334
642.142	9.07014	10.3149
642.318	9.15371	10.422
642.495	9.25204	10.381
642.672	9.34168	10.4491
642.848	9.32136	10.5687
643.025	9.39433	10.5574
643.202	9.48016	10.6666
643.378	9.45	10.6969
643.555	9.59631	10.6012
643.731	9.69678	10.8121
643.908	9.71952	10.768
644.084	9.77928	10.9178
644.261	9.86129	10.884
644.437	9.83139	10.8874
644.614	9.93207	10.9853
644.79	10.0642	10.9914
644.967	10.1376	11.1239
645.143	10.1912	11.1012
645.319	10.3925	11.2279
645.496	10.3133	11.1783
645.672	10.354	11.3114
645.848	10.4151	11.4148
646.024	10.5231	11.4731
646.201	10.5956	11.48
646.377	10.6883	11.5906
646.553	10.7042	11.595
646.729	10.86	11.6911
646.905	10.9087	11.7584
647.081	10.9714	11.8286
647.257	11.0749	11.788
647.433	11.1651	11.9512
647.609	11.1804	12.041
647.785	11.1698	12.0728
647.961	11.3262	12.1424
648.137	11.4353	12.1398
648.313	11.5504	12.1735
648.489	11.5776	12.2997
648.665	11.6579	12.3693
648.841	11.8462	12.4802
649.016	11.8464	12.5334
649.192	11.9519	12.5537
649.368	12.0144	12.5515
649.544	12.1622	12.5904
649.719	12.0816	12.6411
649.895	12.252	12.7747
650.071	12.4033	12.7327
650.246	12.4666	12.9605
650.422	12.5957	12.9449
650.597	12.5908	13.0805
650.773	12.7981	13.1484
650.949	12.8344	13.2446
651.124	12.9312	13.2427
651.3	12.9635	13.32
651.475	13.0638	13.3562
651.65	13.1339	13.4828
651.826	13.3037	13.5484
652.001	13.3642	13.7257
652.177	13.412	13.6547
652.352	13.6308	13.8424
652.527	13.6029	13.7862
652.702	13.7619	13.9323
652.878	13.8747	13.9581
653.053	14.0459	14.1133
653.228	14.0993	14.1907
653.403	14.2102	14.2447
653.578	14.387	14.2779
653.754	14.4254	14.3957
653.929	14.5589	14.433
654.104	14.59	14.6117
654.279	14.8968	14.6439
654.454	14.8737	14.7052
654.629	14.8998	14.7653
654.804	15.1935	14.7787
654.979	14.989	14.8546
655.154	15.1625	14.9722
655.329	15.3485	15.2477
655.503	15.4606	15.1603
655.678	15.6026	15.1711
655.853	15.657	15.2461
656.028	15.7396	15.3295
656.203	15.9538	15.4395
656.377	15.8871	15.6155
656.552	16.1342	15.6496
656.727	16.1019	15.7503
656.902	16.3037	15.7551
657.076	16.549	15.9448
657.251	16.6269	15.9323
657.425	16.736	16.0911
657.6	16.8152	16.011
657.775	16.7874	16.3646
657.949	17.1228	16.3249
658.124	17.1169	16.3279
658.298	17.2597	16.4393
658.472	17.5433	16.563
658.647	17.4658	16.6867
658.821	17.6138	16.7221
658.996	17.751	16.825
659.17	17.858	17.0577
659.344	17.9564	16.9898
659.519	18.0261	16.9428
659.693	18.2219	17.183
659.867	18.4388	17.2221
660.041	18.5287	17.2868
660.216	18.6011	17.3947
660.39	18.8418	17.4951
660.564	18.9119	17.6722
660.738	19.0684	17.8327
660.912	19.1034	17.9386
661.086	19.2812	17.9065
661.26	19.4604	17.9829
661.434	19.4896	18.0921
661.608	19.7453	18.3533
661.782	19.9091	18.3599
661.956	19.9508	18.4019
662.13	20.2504	18.6074
662.304	20.2899	18.6223
662.478	20.5508	18.8374
662.652	20.5403	18.7991
662.826	20.702	18.9089
662.999	20.7981	19.0663
663.173	21.014	19.0838
663.347	21.0046	19.1624
663.521	21.2447	19.3353
663.694	21.2401	19.501
663.868	21.5337	19.4485
664.042	21.6877	19.5737
664.215	21.8228	19.6261
664.389	21.9126	19.8746
664.562	22.0978	19.9487
664.736	22.2678	20.1757
664.909	22.5117	20.1676
665.083	22.4907	20.3568
665.256	22.7661	20.4498
665.43	22.7752	20.515
665.603	22.8949	20.538
665.777	23.2364	20.6761
665.95	23.2431	20.8251
666.123	23.4816	20.7945
666.297	23.6445	21.097
666.47	23.6674	21.099
666.643	24.0168	21.3656
666.816	24.1474	21.4251
666.99	24.1745	21.5417
667.163	24.3606	21.5197
667.336	24.6648	21.8394
667.509	24.5924	21.7943
667.682	24.8345	22.0087
667.855	25.0133	22.1436
668.029	25.1815	22.1017
668.202	25.2399	22.2307
668.375	25.5119	22.4972
668.548	25.732	22.5667
668.721	25.7805	22.5977
668.893	26.0921	22.7621
669.066	26.1115	22.8976
669.239	26.2193	22.9752
669.412	26.5507	23.2228
669.585	26.6496	23.1356
669.758	26.9272	23.4914
669.931	27.0055	23.6114
670.103	27.2971	23.6234
670.276	27.2818	23.795
670.449	27.5334	23.9031
670.622	27.7074	24.0626
670.794	27.9269	24.1365
670.967	28.3383	24.3122
671.139	28.1837	24.4569
671.312	28.5191	24.6289
671.485	28.6957	24.686
671.657	28.5689	24.8412
671.83	28.7974	24.9519
672.002	29.1492	25.0742
672.175	29.3238	25.2512
672.347	29.6118	25.3684
672.519	29.8635	25.3382
672.692	29.8835	25.6623
672.864	30.2563	25.8924
673.037	30.2008	26.0081
673.209	30.4504	25.9811
673.381	30.6207	26.0826
673.553	30.9961	26.28
673.726	30.9787	26.4644
673.898	31.3618	26.5453
674.07	31.4959	26.6078
674.242	31.521	26.9435
674.414	31.898	27.0078
674.587	32.0327	27.0933
674.759	32.2464	27.5216
674.931	32.4082	27.467
675.103	32.7536	27.6302
675.275	32.7421	27.586
675.447	33.2346	27.8506
675.619	33.0894	28.1155
675.791	33.3689	28.3027
675.963	33.7828	28.4211
676.134	33.9873	28.2957
676.306	34.2371	28.7088
676.478	34.2988	28.6799
676.65	34.3761	29.0456
676.822	34.5092	29.3291
676.994	34.7957	29.2988
677.165	35.0129	29.5273
677.337	35.2921	29.5518
677.509	35.4297	29.5301
677.68	35.7681	29.881
677.852	36.1726	30.1229
678.024	36.1104	30.3155
678.195	36.2275	30.6026
678.367	36.6032	30.5595
678.538	36.828	30.7915
678.71	36.9628	30.9531
678.881	37.0016	31.1166
679.053	37.3405	31.2373
679.224	37.588	31.2804
679.396	37.8752	31.5498
679.567	37.9713	31.5543
679.738	38.2653	31.8751
679.91	38.5447	32.1412
680.081	39.0527	32.4738
680.252	39.1983	32.5383
680.424	39.2909	32.5434
680.595	39.6419	32.619
680.766	39.6009	32.856
680.937	39.9496	33.0769
681.108	40.3378	33.286
681.28	40.2395	33.4284
681.451	40.6242	33.4547
681.622	40.7672	33.7582
681.793	41.0881	34.1175
681.964	41.4197	34.27
682.135	41.6078	34.2866
682.306	41.7282	34.294
682.477	42.2764	34.7229
682.648	42.2743	34.8992
682.819	42.5168	35.1124
682.99	42.6269	35.0854
683.16	42.9034	35.4843
683.331	43.3419	35.7405
683.502	43.4291	35.7183
683.673	43.7873	36.0322
683.844	43.7125	36.1642
684.014	44.4731	36.5566
684.185	44.6634	36.5213
684.356	44.6962	36.6923
684.526	44.9708	36.937
684.697	45.0333	37.3521
684.868	45.699	37.2585
685.038	45.7191	37.4932
685.209	46.1632	37.8899
685.379	46.4307	37.5562
685.55	46.1684	37.9212
685.72	46.8527	38.3548
685.891	47.0908	38.7882
686.061	47.3069	38.5246
686.232	47.5481	38.9427
686.402	47.7939	38.7866
686.572	47.8913	39.3357
686.743	48.6163	39.3696
686.913	48.769	39.8092
687.083	48.8243	40.1402
687.254	49.0608	39.9017
687.424	49.2342	39.9403
687.594	49.2131	40.5568
687.764	49.5261	40.8409
687.934	50.1152	40.9859
688.104	50.3161	41.4718
688.275	50.466	41.0546
688.445	50.7795	41.2638
688.615	51.1841	41.8503
688.785	51.1957	41.9529
688.955	51.5892	41.7438
689.125	51.6557	42.2743
689.295	52.0358	42.4987
689.465	52.5415	42.7804
689.635	52.6722	42.9954
689.805	52.7172	43.0989
689.974	53.0319	43.4147
690.144	53.4601	43.7261
690.314	53.5776	43.9769
690.484	53.9511	44.0505
690.654	54.0752	44.2082
690.823	54.4015	44.5942
690.993	54.4804	44.4746
691.163	55.3675	44.9306
691.332	55.5912	45.5302
691.502	55.5753	45.4147
691.672	55.7788	45.5105
691.841	55.8722	45.5104
692.011	56.1555	45.9589
692.18	56.4828	46.0224
692.35	56.7082	46.5685
692.519	56.89	46.342
692.689	57.4506	46.8683
692.858	57.5324	46.9654
693.027	57.879	47.3312
693.197	57.9345	47.3195
693.366	58.3896	47.7558
693.536	58.6377	47.9773
693.705	58.82	48.1042
693.874	59.3648	48.3896
694.043	59.9666	48.6647
694.213	60.2306	48.772
694.382	60.4547	49.4221
694.551	60.3484	49.1942
694.72	60.8182	49.2383
694.889	61.3851	49.7674
695.058	61.45	49.8135
695.228	61.656	50.2865
695.397	61.4384	50.2131
695.566	62.0302	50.5204
695.735	62.2643	51.0341
695.904	62.5087	51.3306
696.073	63.0439	51.1517
696.242	63.306	52.2125
696.41	63.6204	52.0882
696.579	64.1018	52.4599
696.748	64.499	52.7789
696.917	63.8856	52.5551
697.086	64.3771	52.8999
697.255	64.8398	53.1724
697.423	65.3055	53.1589
697.592	64.8852	53.5566
697.761	65.9418	54.3341
697.929	65.4106	53.9591
698.098	65.9365	54.1342
698.267	66.2966	54.3053
698.435	67.0497	54.7378
698.604	67.2268	54.5113
698.772	67.3416	55.4832
698.941	67.9007	55.4749
699.109	68.4096	55.883
699.278	67.5815	56.218
699.446	68.8202	56.0946
699.615	68.8202	56.864
699.783	68.9004	57.2966
699.952	69.5161	56.5201
700.12	69.4211	57.1584
700.288	69.8185	57.1244
700.457	69.8841	56.8145
700.625	70.4638	58.1979
700.793	71.2679	58.4907
700.961	70.7747	58.282
701.13	70.7356	58.0804
701.298	71.781	58.9588
701.466	71.7643	58.9125
701.634	72.2316	59.0528
701.802	72.0805	59.2826
701.97	72.4872	59.972
702.138	72.7531	59.5245
702.306	72.2671	60.3166
702.474	73.3416	60.4767
702.642	73.3072	60.3592
702.81	73.5207	60.6239
702.978	73.9975	60.8619
703.146	74.5607	61.6082
703.314	74.4119	61.2284
703.482	74.4361	61.6271
703.65	75.2654	62.4759
703.818	74.82	62.4589
703.985	75.6845	62.9164
704.153	76.0727	62.7089
704.321	76.6688	63.0451
704.488	76.6698	64.1655
704.656	76.6726	63.7352
704.824	76.9723	64.298
704.991	76.9692	64.2747
705.159	77.2005	63.8453
705.327	77.0906	64.1347
705.494	78.203	64.6595
705.662	77.8133	64.3511
705.829	79.1199	65.2667
705.997	79.1763	65.025
706.164	79.1426	66.0167
706.332	79.0069	65.6206
706.499	79.8809	66.2393
706.666	80.2799	66.2632
706.834	79.9559	66.6647
707.001	80.775	67.2016
707.168	80.7702	66.898
707.336	81.0805	67.0854
707.503	80.9612	67.4568
707.67	81.1501	67.3272
707.837	81.7566	68.1953
708.004	82.1372	68.7796
708.172	83.1518	68.5773
708.339	82.5567	68.3011
708.506	82.5321	68.379
708.673	82.0525	68.6161
708.84	82.8768	68.6983
709.007	83.2475	69.0485
709.174	83.6844	70.2422
709.341	83.6139	69.1176
709.508	84.2931	70.7253
709.675	84.1734	70.3885
709.842	84.8186	70.3946
710.009	84.408	70.8287
710.175	84.4359	71.0131
710.342	84.8817	70.3897
710.509	85.2709	72.1393
710.676	86.4636	72.27
710.843	85.7175	71.3703
711.009	86.4537	71.1672
711.176	85.8841	72.1089
711.343	86.8451	72.4638
711.509	86.8969	73.2921
711.676	87.2562	73.0247
711.843	86.651	72.7244
712.009	87.566	73.5479
712.176	87.6861	73.1432
712.342	87.513	74.7453
712.509	88.6565	74.1087
712.675	88.3811	73.544
712.842	89.0639	75.2285
713.008	88.4796	74.644
713.174	87.5623	74.2586
713.341	89.3786	74.4785
713.507	89.3226	74.8787
713.673	88.8387	75.3588
713.84	90.9547	75.8418
714.006	90.0173	76.0779
714.172	90.9129	76.545
714.339	90.573	76.8339
714.505	90.7886	76.1475
714.671	90.7065	76.3321
714.837	91.0289	77.0921
715.003	91.8011	76.9306
715.169	91.0369	77.867
715.335	91.3373	77.607
715.501	91.488	78.2419
715.667	91.4531	77.7129
715.833	92.5482	77.9759
715.999	93.5625	78.1892
716.165	92.4477	78.8261
716.331	92.8427	78.6986
716.497	93.3416	79.6663
716.663	92.3162	77.7518
716.829	93.5102	79.6335
716.995	93.3201	80.6856
717.161	92.3879	79.158
717.326	93.385	78.7114
717.492	93.941	79.5936
717.658	94.0428	80.277
717.823	94.6573	80.8187
717.989	95.8768	81.7377
718.155	94.9976	79.5549
718.32	93.4447	79.9903
718.486	94.0394	81.5682
718.651	95.0592	80.4339
718.817	95.9413	81.1495
718.983	95.2401	81.4001
719.148	95.9649	82.4643
719.314	95.8996	80.8148
719.479	97.4852	82.6795
719.644	95.6658	81.6415
719.81	94.9393	83.2598
719.975	97.2502	82.651
720.141	97.52	82.5581
720.306	97.2127	82.8288
720.471	96.9817	82.6054
720.636	96.8649	83.6715
720.802	97.3146	84.6514
720.967	97.5024	84.4177
721.132	97.5015	83.7123
721.297	96.6975	85.7146
721.462	98.3076	84.0105
721.628	99.8801	83.9587
721.793	98.4663	84.0629
721.958	98.4675	83.9897
722.123	99.1902	84.3843
722.288	99.2017	83.5192
722.453	99.2919	84.9358
722.618	99.3936	84.5666
722.783	99.8649	87.2143
722.948	98.0247	84.2031
723.112	98.8592	86.2812
723.277	98.1819	84.8484
723.442	100.107	87.2853
723.607	99.837	87.5341
723.772	99.5371	86.7636
723.937	100.125	87.1287
724.101	101.928	87.165
724.266	100.419	87.8359
724.431	100.214	87.8858
724.595	100.188	87.0965
724.76	101.201	87.6172
724.925	99.9329	85.9703
725.089	99.8332	88.4354
725.254	101.304	88.6612
725.418	102.608	87.2997
725.583	102.819	88.9097
725.747	101.859	88.4871
725.912	103.173	88.1408
726.076	102.682	87.0826
726.241	102.241	89.734
726.405	102.563	88.9284
726.57	105.276	89.6589
726.734	102.535	89.1701
726.898	103.463	87.7901
727.062	104.422	89.6131
727.227	103.919	90.8299
727.391	103.612	89.2424
727.555	104.255	92.624
727.719	102.393	91.0656
727.884	101.846	87.6434
728.048	105.647	90.7647
728.212	105.962	91.8929
728.376	105.589	92.3043
728.54	104.685	90.079
728.704	103.72	89.7653
728.868	102.571	91.6707
729.032	104.404	92.2469
729.196	105.5	91.4904
729.36	105.372	94.0335
729.524	102.614	90.7341
729.688	104.213	90.2961
729.852	103.058	90.6536
730.015	106.312	92.0627
730.179	105.589	91.7017
730.343	107.826	93.1003
730.507	107.751	93.9386
730.671	104.554	93.5429
730.834	105.41	92.5484
730.998	107.19	93.9454
731.162	106.536	94.9166
731.325	108.481	94.4306
731.489	105.764	93.0181
731.652	106.998	91.7934
731.816	106.666	93.3709
731.98	106.766	92.1882
732.143	106.315	95.2875
732.307	105.645	94.8576
732.47	108.614	97.9612
732.633	109.662	96.0695
732.797	107.005	94.0119
732.96	111.224	96.624
733.124	108.77	94.9706
733.287	106.307	93.0993
733.45	108.867	95.9166
733.614	109.598	96.689
733.777	109.037	94.789
733.94	111.029	94.9845
734.103	109.664	96.6982
734.266	110.034	95.1464
734.43	110.278	95.9395
734.593	113.893	98.1162
734.756	109.161	96.8209
734.919	112.475	100.399
735.082	111.216	98.7131
735.245	111.822	97.3289
735.408	109.614	96.7148
735.571	111	95.9449
735.734	111.012	97.6696
735.897	116.01	98.4726
736.06	110.258	97.4886
736.223	112.534	100.404
736.386	112.35	100.496
736.549	111.356	100.78
736.711	111.07	99.2865
736.874	112.66	99.9173
737.037	109.201	97.1104
737.2	110.226	97.7919
737.362	114.46	103.573
737.525	112.665	100.182
737.688	114.499	100.585
737.85	116.331	101.495
738.013	114.166	101.208
738.176	114.432	100.439
738.338	110.801	99.6938
738.501	116.33	103.109
738.663	113.265	98.9901
738.826	116.937	105.486
738.988	114.163	101.816
739.151	117.376	103.675
739.313	114.192	102.628
739.475	116.747	102.739
739.638	118.332	104.199
739.8	117.071	102.515
739.962	115.609	99.5648
740.125	116.555	103.671
740.287	115.771	102.633
740.449	114.599	101.48
740.611	117.542	104.944
740.774	116.182	104.875
740.936	114.324	101.268
741.098	116.583	102.754
741.26	115.654	102.752
741.422	117.93	103.199
741.584	117.774	104.12
741.746	116.456	105.75
741.908	119.145	105.891
742.07	121.26	109.99
742.232	119.338	105.077
742.394	116.639	105.348
742.556	115.04	100.671
742.718	118.284	109.357
742.88	115.565	105.202
743.042	124.873	108.956
743.203	118.878	108.085
743.365	119.05	105.763
743.527	119.314	105.417
743.689	120.82	109.187
743.85	121.86	108.078
744.012	120.015	107.824
744.174	122.16	108.302
744.335	120.676	106.065
744.497	119.387	108.965
744.658	121.382	108.03
744.82	122.52	107.426
744.982	123.113	107.043
745.143	119.598	106.673
745.305	124.445	109.541
745.466	119.04	107.794
745.627	126.351	110.71
745.789	120.751	110.286
745.95	124.018	111.276
746.112	123.033	109.4
746.273	123.913	111.047
746.434	123.358	109.544
746.596	126.496	116.425
746.757	121.252	110.677
746.918	124.429	110.266
747.079	123.046	109.612
747.24	122.971	111.138
747.402	124.622	108.166
747.563	123.217	111.793
747.724	123.154	110.258
747.885	123.463	110.703
748.046	121.516	109.065
748.207	123.164	109.943
748.368	128.142	113.269
748.529	128.205	111.283
748.69	127.334	112.672
748.851	128.444	113.546
749.012	124.352	109.428
749.173	128.064	112.675
749.334	125.363	110.543
749.494	127.731	112.434
749.655	125.955	111.985
749.816	124.066	110.917
749.977	129.97	114.297
750.137	129.551	111.863
750.298	127.564	115.103
750.459	128.21	113.564
750.62	128.303	111.959
750.78	131.738	118.007
750.941	130.254	113.159
751.101	126.742	114.289
751.262	125.079	113.419
751.422	129.754	115.186
751.583	127.266	114.103
751.743	127.158	115.737
751.904	128.122	115.897
752.064	127.392	115.503
752.225	125.291	113.705
752.385	127.308	117.99
752.545	130.623	118.662
752.706	125.348	112.914
752.866	131.138	119.657
753.026	131.644	116.365
753.187	134.604	120.83
753.347	134.946	120.817
753.507	123.019	112.416
753.667	130.578	112.945
753.827	134.155	118.083
753.988	132.406	121.142
754.148	135.177	116.192
754.308	132.275	118.116
754.468	137.263	123.581
754.628	134.072	118.176
754.788	127.11	119.649
754.948	130.391	117.648
755.108	130.009	114.675
755.268	128.787	118.176
755.428	130.764	119.143
755.587	138.211	120.396
755.747	134.371	120.006
755.907	136.136	119.488
756.067	129.798	119.167
756.227	132.936	118.69
756.386	135.761	121.219
756.546	133.394	119.523
756.706	133.586	116.97
756.866	128.76	125.501
757.025	135.533	118.343
757.185	136.952	119.302
757.344	130.913	120.982
757.504	135.492	119.367
757.664	132.155	118.706
757.823	138.381	118.108
757.983	128.915	118.964
758.142	137.052	121.799
758.302	138.848	127.584
758.461	131.71	121.041
758.62	131.2	119.329
758.78	139.112	122.884
758.939	137.102	120.541
759.098	134.627	119.115
759.258	128.869	117.523
759.417	134.185	123.104
759.576	131.388	119.97
759.735	132.411	120.052
759.895	135.45	122.393
760.054	138.417	123.96
760.213	138.719	121.743
760.372	137.635	125.223
760.531	133.222	119.057
760.69	137.782	121.637
760.849	130.536	115.254
761.008	136.499	120.349
761.167	131.208	115.812
761.326	139.465	127.514
761.485	137.149	127.013
761.644	137.902	127.179
761.803	138.563	126.488
761.962	138.659	123.38
762.121	131.423	121.948
762.28	143.033	127.195
762.439	139.085	124.326
762.597	146.484	127.429
762.756	132.413	122.368
762.915	145.705	133.102
763.073	137.944	123.452
763.232	141.334	123.106
763.391	136.536	124.776
763.549	0	0
763.708	140.493	118.599
763.867	142.206	124.616
764.025	135.505	123.392
764.184	140.237	124.515
764.342	135.28	123.736
764.501	0	0
764.659	138.967	125.283
764.818	134.152	120.91
764.976	0	0
765.134	0	0
765.293	129.07	119.665
765.451	0	0
765.609	0	0
765.768	0	0
765.926	0	0
766.084	0	0
766.242	0	0
766.4	0	0
766.559	0	0
766.717	0	0
766.875	0	0
767.033	0	0
767.191	0	0
767.349	0	0
767.507	0	0
767.665	0	0
767.823	0	0
767.981	0	0
768.139	0	0
768.297	0	0
768.454	0	0
768.612	0	0
768.77	0	0
768.928	0	0
769.086	0	0
769.243	0	0
769.401	0	0
769.559	0	0
769.716	0	0
769.874	0	0
770.031	0	0
770.189	0	0
770.347	0	0
770.504	0	0
770.662	0	0
770.819	0	0
770.977	0	0
771.134	0	0
771.291	0	0
771.449	0	0
771.606	0	0
771.763	0	0
771.921	0	0
772.078	0	0
772.235	0	0
772.393	0	0
772.55	0	0
772.707	0	0
772.864	0	0
773.021	0	0
773.178	0	0
773.335	0	0
773.492	0	0
773.649	0	0
773.806	0	0
773.963	0	0
774.12	0	0
774.277	0	0
774.434	0	0
774.591	0	0
774.748	0	0
774.905	0	0
775.061	0	0
775.218	0	0
775.375	0	0
775.532	0	0
775.688	0	0
775.845	0	0
776.002	0	0
776.158	0	0
776.315	0	0
776.471	0	0
776.628	0	0
776.784	0	0
776.941	0	0
777.097	0	0
777.254	0	0
777.41	0	0
777.567	0	0
777.723	0	0
777.879	0	0
778.036	0	0
778.192	0	0
778.348	0	0
778.505	0	0
778.661	0	0
778.817	0	0
778.973	0	0
779.129	0	0
779.285	0	0
779.442	0	0
779.598	0	0
779.754	0	0
779.91	0	0
780.066	0	0
780.222	0	0
780.378	0	0
780.533	0	0
780.689	0	0
780.845	0	0
781.001	0	0
781.157	0	0
781.313	0	0
781.468	0	0
781.624	0	0
781.78	0	0
781.936	0	0
782.091	0	0
782.247	0	0
782.403	0	0
782.558	0	0
782.714	0	0
782.869	0	0
783.025	0	0
783.18	0	0
783.336	0	0
783.491	0	0
783.647	0	0
783.802	0	0
783.957	0	0
784.113	0	0
784.268	0	0
784.423	0	0
784.578	0	0
784.734	0	0
784.889	0	0
785.044	0	0
785.199	0	0
785.354	0	0
785.51	0	0
785.665	0	0
785.82	0	0
785.975	0	0
786.13	0	0
786.285	0	0
786.44	0	0
786.595	0	0
786.75	0	0
786.905	0	0
787.059	0	0
787.214	0	0
787.369	0	0
787.524	0	0
787.679	0	0
787.833	0	0
787.988	0	0
788.143	0	0
788.297	0	0
788.452	0	0
788.607	0	0
788.761	0	0
788.916	0	0
789.07	0	0
789.225	0	0
789.379	0	0
789.534	0	0
789.688	0	0
789.843	0	0
789.997	0	0
790.151	0	0
790.306	0	0
790.46	0	0
790.614	0	0
790.769	0	0
790.923	0	0
791.077	0	0
791.231	0	0
791.385	0	0
791.54	0	0
791.694	0	0
791.848	0	0
792.002	0	0
792.156	0	0
792.31	0	0
792.464	0	0
792.618	0	0
792.772	0	0
792.926	0	0
793.08	0	0
793.233	0	0
793.387	0	0
793.541	0	0
793.695	0	0
793.849	0	0
794.002	0	0
794.156	0	0
794.31	0	0
794.463	0	0
794.617	0	0
794.771	0	0
794.924	0	0
795.078	0	0
795.231	0	0
795.385	0	0
795.538	0	0
795.692	0	0
795.845	0	0
795.999	0	0
796.152	0	0
796.305	0	0
796.459	0	0
796.612	0	0
796.765	0	0
796.919	0	0
797.072	0	0
797.225	0	0
797.378	0	0
797.531	0	0
797.685	0	0
797.838	0	0
797.991	0	0
798.144	0	0
798.297	0	0
798.45	0	0
798.603	0	0
798.756	0	0
798.909	0	0
799.062	0	0
799.214	0	0
799.367	0	0
799.52	0	0
799.673	0	0
799.826	0	0
799.979	0	0
800.131	0	0
800.284	0	0
800.437	0	0
800.589	0	0
800.742	0	0
800.895	0	0
801.047	0	0
801.2	0	0
801.352	0	0
801.505	0	0
801.657	0	0
801.81	0	0
801.962	0	0
802.115	0	0
802.267	0	0
802.419	0	0
802.572	0	0
802.724	0	0
802.876	0	0
803.028	0	0
803.181	0	0
803.333	0	0
803.485	0	0
803.637	0	0
803.789	0	0
803.941	0	0
804.094	0	0
804.246	0	0
804.398	0	0
804.55	0	0
804.702	0	0
804.854	0	0
805.005	0	0
805.157	0	0
805.309	0	0
805.461	0	0
805.613	0	0
805.765	0	0
805.917	0	0
806.068	0	0
806.22	0	0
806.372	0	0
806.523	0	0
806.675	0	0
806.827	0	0
806.978	0	0
807.13	0	0
807.281	0	0
807.433	0	0
807.584	0	0
807.736	0	0
807.887	0	0
808.039	0	0
808.19	0	0
808.342	0	0
808.493	0	0
808.644	0	0
808.796	0	0
808.947	0	0
809.098	0	0
809.249	0	0
