#Changer LED: 1
#Wavelength [nm]	White Std. spectrum	Dark specetrum	Sample spectrum0[s]	Sample spectrum97.991[s]	Sample spectrum198.032[s]	Sample spectrum298.074[s]	Sample spectrum398.065[s]	Sample spectrum498.106[s]	Sample spectrum598.197[s]	Sample spectrum608.197[s]
380.024	26.1978	-0.0580668	5.5057	0	0	9.63909	7.70353	2.38074	4.80019	3.91273	
380.235	26.4131	0.715697	4.38316	4.27484	0	8.14347	5.72558	0	6.20915	4.02434	
380.446	25.6244	2.95703	5.04231	9.62954	2.90902	1.94895	6.26928	6.74932	0	5.37689	
380.656	26.7001	-0.257926	5.78088	8.47333	3.69693	2.74165	0	3.69693	7.51805	5.44032	
380.867	27.3036	-0.635191	2.42383	10.5769	0.952786	3.84002	2.3964	2.87761	1.9152	3.36025	
381.078	25.9782	0.491793	2.05107	2.0636	9.778	10.2602	3.0279	5.43865	5.9208	3.33166	
381.288	26.4708	0.639346	5.07946	7.51947	4.17961	0	0	8.95085	4.65673	5.71213	
381.499	26.1576	0.783392	4.94397	3.82142	10.5089	0.477678	2.86607	6.20981	6.20981	5.20669	
381.709	26.5121	1.61775	3.05708	14.3219	5.28149	6.70892	2.42663	6.23311	9.08797	4.75334	
381.92	25.5048	0.760203	3.40001	4.90331	5.37844	10.6048	0	2.52768	10.6048	4.6591	
382.13	25.5943	0.480069	4.59125	10.5145	0.630679	3.45462	0	8.63183	5.33724	4.30886	
382.34	25.8063	-0.0094737	4.01495	2.40631	2.88	5.7221	1.93263	9.51157	5.24842	3.76484	
382.551	25.9358	-0.668157	2.81849	4.95001	3.06788	5.42054	0.71521	6.36161	6.36161	4.98389	
382.761	26.4534	0.795381	7.02228	3.8459	9.46035	3.8459	4.31377	7.121	11.3318	4.94025	
382.972	25.1611	-1.71254	3.35074	8.05457	4.76123	6.17266	3.82027	1.93837	5.2317	4.18536	
383.182	26.8336	0.346059	4.72136	6.519	6.05135	11.6631	6.05135	9.32488	5.58371	5.23578	
383.392	24.9238	1.38724	4.74269	8.31413	5.98655	4.12448	1.33138	1.33138	11.5728	4.34374	
383.603	24.6225	1.08818	4.03458	5.8098	0.276657	14.1095	1.65994	6.73199	10.8818	4.70778	
383.813	24.756	0.529832	4.34462	4.85984	2.57608	0	3.48959	10.7976	10.3409	5.1275	
384.023	26.4179	-0.0821282	4.4112	3.65927	0.921661	6.85315	5.94061	1.37793	4.57181	5.39263	
384.233	24.5895	-1.43089	4.13547	11.1646	0.22785	9.34183	6.60764	9.34183	7.06333	4.56838	
384.443	23.6547	-0.208691	3.72696	0.734957	0	11.6232	0	0.28128	4.36437	3.83176	
384.654	24.9322	0.23521	3.51322	1.81835	0.00904648	0	4.07998	0.00904648	2.723	3.51322	
384.864	24.5349	-0.341011	4.27386	0	5.69848	8.39067	8.83937	5.69848	1.21149	4.16393	
385.074	25.5373	-0.350565	3.32138	1.94159	1.04271	4.1888	1.04271	9.5821	11.3799	3.95779	
385.284	25.2467	0.997752	4.94422	0	5.79052	6.68137	2.22712	6.68137	13.3627	5.6569	
385.494	24.4754	1.33502	3.31886	3.45325	5.67829	0	0	9.23835	8.34833	3.94187	
385.704	24.5337	-0.890516	4.6663	7.83654	6.05551	5.61025	0	0.712413	9.17231	4.17652	
385.914	23.6699	0.302775	3.09008	1.91461	8.59346	1.91461	3.69563	6.81243	5.47666	3.83144	
386.124	24.3648	-1.36002	3.2756	8.40012	0	10.6224	3.06671	2.62226	5.73342	5.78231	
386.334	24.7479	0.835598	4.86514	5.30694	8.86267	2.64013	6.19587	11.5295	0.417799	4.33444	
386.544	23.4192	1.49578	4.34131	0.752316	0	0.309777	10.4882	10.4882	6.50532	3.68414	
386.754	24.8115	0.706126	3.6873	10.2124	4.47508	5.79906	4.47508	7.12305	2.70976	4.39961	
386.964	24.3441	-1.12507	5.2338	1.43513	4.09278	11.6228	0.549248	3.2069	8.5222	4.8573	
387.173	24.3398	-2.64851	3.14643	4.36121	0.829866	4.80263	1.27128	1.7127	8.33397	3.84475	
387.383	23.1457	2.95365	3.66129	5.46777	0.632925	12.0607	2.39105	6.34683	5.46777	4.08588	
387.593	25.9111	0.874899	3.83718	2.04143	6.01824	13.9719	1.59956	10.4369	7.34385	3.85618	
387.803	23.2813	-1.05504	4.30018	0	13.2056	4.8532	8.8096	0	11.4472	3.59594	
388.013	22.8029	-0.359584	3.35027	6.66546	0	3.59584	0.964737	0	5.78842	3.30203	
388.222	24.2942	-0.44794	4.87069	7.36905	4.73411	6.05158	2.09917	0	9.12568	3.95066	
388.432	22.9973	-1.78663	3.78888	2.3763	3.25641	7.65697	5.89675	1.05613	2.3763	4.34775	
388.642	25.1735	1.16657	4.39351	4.36808	3.49095	2.61383	0	0.859582	6.99945	4.3058	
388.851	23.0181	0.826786	3.51824	2.90255	2.02299	0	2.46277	2.46277	2.46277	4.31424	
389.061	24.2515	0.498858	4.3602	6.49391	0	9.11948	11.745	6.49391	6.93151	6.54467	
389.271	23.9136	3.32304	3.96121	2.76773	8.0564	4.0899	4.0899	8.49712	14.2265	6.34728	
389.48	25.3388	-1.41792	5.39468	4.21001	7.71106	3.33475	0	1.14659	9.89921	5.91152	
389.69	24.4842	-0.0962912	4.20092	5.05966	3.30891	4.62197	2.43354	2.87123	1.99585	3.60304	
389.899	24.3722	0.0522821	6.13443	2.82323	3.25892	11.1012	8.48712	2.82323	10.6655	5.12277	
390.109	23.5629	-0.417659	4.59903	9.2494	9.68446	2.28842	3.15854	3.5936	9.68446	4.16962	
390.318	25.2224	0.812779	4.40037	2.75296	1.00505	3.18994	1.00505	0	5.81181	4.09667	
390.528	24.1775	-0.531278	3.73201	9.23205	2.69994	3.57089	4.00636	7.92563	4.44183	4.61602	
390.737	25.4066	0.652568	6.31337	2.59287	4.76809	0	0	8.24845	8.24845	5.27101	
390.947	24.6231	0.595093	3.28595	5.26097	1.37993	6.98588	0.0862454	7.84833	6.12342	4.0061	
391.156	24.0747	0.140326	4.18128	3.14857	3.58709	12.3575	0	7.53376	6.2182	4.45228	
391.365	24.7296	-0.226159	2.65128	3.54896	0.0695873	0	0.504508	13.5521	5.72356	3.96648	
391.575	24.4919	0.503733	5.12419	0	4.77678	12.1591	0	3.90828	3.03977	5.01562	
391.784	24.8037	0.103962	3.74395	0.68442	4.58301	1.55077	6.7489	0	1.55077	2.59256	
391.993	24.1532	0.979653	5.01964	0.52017	0.953645	8.75619	1.82059	0.086695	2.68754	4.65986	
392.202	24.8772	0.112999	4.30527	6.44964	8.18809	12.0996	5.58042	6.01503	6.88425	5.25446	
392.412	25.4321	0.465537	4.04974	0.629337	2.7846	4.50881	3.64671	0	3.64671	4.02647	
392.621	24.1307	-1.18534	3.63907	4.61157	6.77459	5.47678	0	2.88115	5.47678	3.68233	
392.83	25.4416	1.10842	4.68739	0.710079	7.63768	8.50363	5.4728	0	1.57603	5.44509	
393.039	23.949	-0.450398	3.58196	9.20717	1.8449	6.17565	3.5772	5.74257	9.20717	4.5291	
393.248	24.8448	0.397794	6.19002	5.60371	1.27986	0.41509	0.41509	2.57701	8.19802	5.2604	
393.457	26.1335	1.2958	2.76336	4.93101	4.49617	5.36584	0	6.23551	5.80067	3.87958	
393.666	24.9464	-1.19248	5.80138	13.1347	0.948762	15.746	10.0882	2.68961	8.34737	5.9537	
393.876	25.0063	-1.54285	4.2307	0	5.18328	12.9842	2.14959	4.7499	9.95052	5.26996	
394.085	25.6174	0.694024	4.87794	4.52434	6.72062	11.5524	5.40285	3.64582	6.28136	4.46064	
394.294	25.8009	1.12672	3.70943	2.46306	6.83018	5.95675	5.08333	7.26689	2.02634	4.48765	
394.503	25.0342	0.342934	5.09873	9.59336	6.95541	8.71404	5.19677	2.99847	4.31745	5.64039	
394.711	25.876	0.122594	4.2505	6.33985	0	0	4.15068	7.65336	6.33985	5.01671	
394.92	25.298	-0.593268	5.7299	9.01413	5.02949	6.3577	6.80044	4.14402	10.3423	5.7299	
395.129	26.6024	1.03473	3.03876	2.36132	1.47693	6.34106	5.45667	11.6474	9.43642	4.77083	
395.338	25.8675	2.79387	7.58398	3.04064	7.0067	7.44737	7.88805	8.32872	3.92199	7.09704	
395.547	25.2021	-1.55118	5.22586	12.6412	6.84657	4.61787	7.29231	5.50935	12.1954	6.09505	
395.756	27.134	0.222192	5.4748	4.57714	4.13276	0	5.91029	0	5.91029	5.51257	
395.965	27.6026	-0.00883001	4.76379	5.52758	0	5.52758	11.2671	6.85208	2.43708	4.2905	
396.173	26.6767	0.43485	4.71146	0	5.99915	0	0	5.1117	7.77404	4.67774	
396.382	26.7254	-0.406	5.07014	4.56308	4.56308	12.0653	9.85873	7.21091	11.1826	6.05601	
396.591	28.7102	0.398876	5.12777	3.67852	4.12171	3.67852	1.46254	16.5312	12.5424	7.2551	
396.8	26.1785	0.519094	4.7703	6.74822	11.2232	4.51075	4.95824	5.40574	2.72077	3.25239	
397.008	28.2419	3.44327	6.27906	0	1.4451	7.68937	6.79733	6.79733	8.13539	6.1283	
397.217	27.0216	2.59514	6.01075	5.43999	9.4531	7.6695	0.980982	11.2367	2.31869	6.61271	
397.426	27.4486	2.07024	4.92218	0	0	7.12984	8.02219	12.9301	9.80688	8.8253	
397.634	28.3976	-0.0625498	4.98834	8.891	6.2103	6.2103	8.44422	10.2314	2.18924	6.63474	
397.843	29.4273	-1.0836	7.3125	9.84194	10.2897	10.2897	9.39417	10.2897	8.05087	6.75234	
398.051	28.3714	-0.581198	5.2433	6.22328	2.64668	0	0	5.77621	3.54083	5.44448	
398.26	27.5496	0.360362	5.64416	9.63967	2.43244	12.3424	6.03606	12.7928	11.8919	8.23426	
398.468	30.6278	-0.487445	5.3303	10.2905	12.9985	8.03382	5.77713	8.03382	8.03382	6.12014	
398.677	29.5061	0.916112	6.90622	0.562366	11.9004	6.91166	7.36518	7.8187	15.075	5.95382	
398.885	29.5527	-1.58318	6.42553	9.71745	9.71745	6.98783	8.35264	9.26252	0	5.74312	
399.094	31.5618	-0.13667	6.07955	0	4.60124	9.15692	15.0793	5.0568	10.0681	6.08183	
399.302	31.2174	0.599635	6.98666	4.94245	7.66806	12.665	10.8479	11.3022	5.85098	6.23984	
399.51	30.3104	-0.856379	7.36122	0.819938	13.5745	6.74171	4.46411	5.37515	10.8414	8.01717	
399.719	31.565	-0.698221	7.74753	4.90568	7.62602	9.43958	12.1599	8.5328	6.71924	7.26739	
399.927	32.3057	2.85131	3.93471	3.04322	3.04322	6.69874	5.78486	3.9571	6.69874	6.29526	
400.135	31.3995	1.27024	6.7149	9.56791	4.08486	6.82638	3.62794	11.8525	8.65406	6.66646	
400.344	33.0056	-0.246788	7.78112	11.0049	12.833	12.833	4.14969	8.26281	9.63385	8.17141	
400.552	33.3723	-0.466426	6.34522	11.2308	5.28616	6.658	9.85896	10.7735	9.40168	7.81126	
400.76	34.305	-3.09944e-08	5.61106	9.99043	3.14767	6.34096	8.16569	6.79714	6.34096	7.07085	
400.968	32.7751	2.97373	7.79987	6.13961	4.76712	8.88459	1.56464	11.6296	5.68211	8.44036	
401.176	33.9143	-2.08873	7.8854	13.6042	9.93977	14.5203	13.6042	12.6881	9.93977	8.4511	
401.385	35.101	-0.338301	7.17289	7.49747	9.32613	4.7545	0.640028	14.8121	12.0691	9.22555	
401.593	34.9986	2.58342	9.45805	11.9835	6.54467	10.1705	8.3576	6.09144	11.5302	7.44116	
401.801	36.5104	-0.997553	8.69231	7.80812	5.99438	5.08752	13.7027	8.71498	3.27379	7.85346	
402.009	35.5144	2.50626	9.00028	6.05679	6.96485	17.4076	1.06243	6.05679	16.9536	9.23501	
402.217	36.4688	2.93061	10.0756	15.3721	15.8271	14.4619	8.09104	9.91129	9.91129	10.5256	
402.425	38.9701	0.560721	8.94892	9.6046	12.3178	11.8656	5.98705	10.0568	7.34363	11.0064	
402.633	36.7674	-1.82062	8.45678	12.2346	14.5103	7.68302	9.95879	11.7794	10.4139	7.86781	
402.841	38.0382	0.689132	10.5319	3.07389	15.7684	12.1414	8.5144	4.88739	11.688	11.756	
403.049	38.6757	4.58727	10.7367	17.4641	6.17656	5.27355	6.17656	8.43408	9.33708	10.1498	
403.257	41.1211	7.98574	12.3896	12.4122	11.0572	16.4774	14.2189	9.25045	14.6706	11.7573	
403.465	39.2918	10.7974	8.57833	11.3171	13.1092	12.6612	10.8691	15.3493	14.4533	10.8467	
403.673	40.8282	17.3392	10.8314	7.74312	11.7713	13.5616	13.5616	5.9528	10.8762	12.4651	
403.88	41.3752	20.4084	11.4006	13.195	8.7642	7.43495	10.0935	14.0812	10.5365	10.9353	
404.088	44.735	25.5476	11.1975	11.7167	8.16351	17.0466	10.3843	13.4933	22.3764	15.2699	
404.296	42.4009	25.0812	11.3591	13.1955	8.77047	14.9656	12.753	14.9656	20.2756	11.9786	
404.504	44.4457	25.7733	13.211	12.948	16.8929	20.8378	15.5779	12.948	25.221	13.474	
404.712	44.91	23.7697	10.7323	16.7142	14.9612	14.523	8.38776	17.5906	14.523	12.8139	
404.919	46.4606	23.3656	14.1738	9.92033	20.3903	19.5178	10.7928	5.12158	13.8466	12.9523	
405.127	47.6671	19.4492	14.2697	19.006	10.7501	17.2679	16.8334	14.6608	12.4882	12.5099	
405.335	47.9411	14.492	14.492	14.6216	18.508	12.0306	15.0534	5.12143	12.4624	15.2261	
405.542	47.8151	13.2997	13.9608	15.754	14.4577	12.7294	10.5689	17.9145	8.84056	12.8806	
405.75	50.2787	11.9187	16.0091	17.0832	17.9426	15.7943	12.7867	15.3646	17.9426	15.7083	
405.958	50.2715	7.11108	14.0987	14.2903	10.0322	13.8645	14.2903	10.8838	20.2517	14.5671	
406.165	52.6169	8.56038	17.8548	12.2218	21.6101	16.0625	14.3555	9.66137	16.0625	17.0866	
406.373	54.2342	6.34801	15.6788	20.7776	13.5543	14.829	20.3527	12.7045	12.2796	16.1674	
406.58	54.4757	11.9389	17.8494	21.1798	14.0131	20.7583	18.6504	17.8072	18.2288	17.6808	
406.788	54.9352	4.26148	16.0839	14.1431	16.6746	14.9869	17.9404	21.3159	13.7211	17.5396	
406.995	56.3399	3.84957	18.5965	18.0711	22.694	21.8535	13.4483	16.8104	14.7091	17.6299	
407.203	57.4573	6.95868	19.4448	23.453	16.3181	20.5151	15.4786	24.2924	15.8983	18.1647	
407.41	60.3168	4.81997	18.352	23.4533	18.415	14.6363	13.3767	18.415	18.415	19.8425	
407.617	61.8263	4.50495	19.2879	21.7072	22.9586	13.7818	17.5359	15.4503	15.8674	18.1616	
407.825	62.9544	5.22883	21.0362	18.4719	19.7228	19.7228	15.5531	15.1361	19.3058	21.0154	
408.032	62.9569	1.64415	23.3238	21.7953	20.1429	20.1429	25.1001	23.0346	23.4477	21.6301	
408.239	66.6361	1.73497	23.4797	14.2909	21.6913	17.9911	26.6248	20.4579	21.2801	22.8424	
408.447	68.2274	1.3775	22.8641	24.3605	16.571	18.6209	21.0807	16.571	21.4907	23.479	
408.654	70.7406	1.69561	25.1065	22.6491	28.3831	25.1065	25.9257	30.0213	24.697	23.0792	
408.861	71.3333	1.81964	24.2878	26.7153	28.7553	25.0833	23.8594	22.2274	25.4913	24.349	
409.068	74.555	0.950625	28.0597	27.5113	28.73	28.3238	20.605	24.2613	23.855	25.2972	
409.276	75.3429	1.31868	26.766	27.9998	24.7637	23.5502	25.1682	31.6403	35.2808	26.9481	
409.483	77.7423	1.82076	28.0518	26.8177	31.2685	26.4131	25.6039	26.4131	27.2224	27.2021	
409.69	80.6928	1.80926	29.4989	34.4643	30.4438	23.6088	28.4335	28.8355	25.6191	26.0814	
409.897	83.0217	1.97171	31.6281	30.9412	30.5372	38.2139	33.3655	27.7089	38.2139	28.4362	
410.104	83.9091	0.719975	30.8429	29.143	29.543	23.5432	31.5429	33.9428	33.5428	29.323	
410.311	86.4804	2.27054	31.3199	27.8221	32.2193	35.4172	35.0175	25.0239	31.4198	30.3205	
410.518	88.2421	0.959411	33.0283	30.6694	34.2375	35.4269	19.5688	32.6517	29.0836	31.2047	
410.725	92.4101	2.15091	34.549	30.5556	36.091	35.3002	32.5325	27.7879	40.4403	33.4221	
410.932	94.4592	1.97829	34.0146	38.1097	34.1531	32.9661	29.8009	36.5271	28.2183	32.9464	
411.139	97.7046	0.577011	36.2608	38.6123	35.4506	40.1932	29.1272	37.0315	45.7261	37.5255	
411.346	99.5755	1.34286	37.011	38.5816	33.8698	38.9742	35.8331	38.9742	37.011	36.3042	
411.553	103.479	1.63579	39.5892	30.7418	34.2807	35.4604	36.6401	32.7079	35.0672	37.3872	
411.76	104.846	-0.554202	39.6645	37.4984	36.3275	39.8401	34.7664	34.7664	39.0595	38.4936	
411.967	110.479	1.1065	41.6535	46.9717	36.4522	46.5821	38.7899	47.3614	37.621	38.9652	
412.174	110.577	0.564838	41.5775	41.3647	46.0072	42.9122	36.7222	44.8465	43.6859	41.5968	
412.381	114.198	2.72471	44.439	48.1158	34.5697	53.5343	42.6974	33.7956	51.5991	42.7554	
412.587	117.006	1.11142	43.1002	47.1626	46.3961	39.4976	49.8454	40.6474	45.6296	43.081	
412.794	121.328	0.838705	47.937	41.512	51.5149	42.2815	41.512	47.6677	44.9746	45.9364	
413.001	124.674	3.23542	49.1814	46.4279	49.4873	48.7225	49.4873	46.8103	54.459	47.3457	
413.208	129.041	2.30007	52.0342	51.5949	53.1231	47.01	46.6279	47.01	52.359	49.1687	
413.414	130.981	0.967405	54.8869	49.5357	46.8696	41.5375	44.9653	44.9653	50.6783	49.3453	
413.621	135.734	1.55781	55.6099	51.3165	61.5752	54.3561	50.9365	51.6964	49.0367	51.1455	
413.828	138.407	2.84394	54.9424	52.9002	55.9257	49.1184	47.2275	55.9257	57.4384	52.5221	
414.034	144.505	0.39447	59.5725	59.4967	54.9451	54.9451	58.7381	57.2209	66.7033	56.1589	
414.241	147.384	1.41861	57.044	61.9939	60.4767	54.0285	55.1664	58.5802	48.3389	54.844	
414.447	151.99	2.24723	61.1503	67.1077	54.665	58.8126	50.8945	56.5503	56.5503	57.474	
414.654	157.246	1.98778	62.9968	62.2032	58.802	68.2496	59.1799	59.9357	56.5346	59.2555	
414.86	162.151	0.166487	67.3895	66.8976	66.8976	66.1408	66.8976	66.5192	70.6814	63.9462	
415.067	164.871	3.04068	66.1573	63.4424	67.187	64.9402	60.0722	65.6892	69.4339	63.1241	
415.273	171.025	1.75178	70.4637	71.1433	76.8063	63.97	66.2353	63.97	65.4802	67.4056	
415.48	175.049	0.949181	71.4108	69.697	66.3071	69.3203	65.1771	70.827	66.6837	68.7177	
415.686	181.544	0.868124	74.3944	72.9979	71.1106	75.2625	73.7528	67.3362	76.0174	71.3937	
415.893	186.597	1.38471	77.2162	73.2841	76.2943	74.7892	72.5315	74.0367	75.1655	72.3246	
416.099	191.717	4.96852	81.0095	74.4977	76.3797	81.6493	66.9696	68.8516	74.1213	74.1589	
416.305	197.737	1.57132	83.0157	82.7513	77.8409	77.8409	80.8627	80.1073	77.0855	78.6908	
416.512	204.432	2.38969	86.3466	83.6619	85.5525	79.1246	82.1495	76.0996	86.6869	80.4291	
416.718	210.143	1.69842	88.4498	85.7512	86.506	89.9029	80.0898	79.3349	85.3738	82.2223	
416.924	215.608	2.70235	90.9992	91.3003	86.4075	84.1493	80.7619	86.4075	81.891	85.8617	
417.131	223.459	1.85299	93.9677	94.382	90.2391	90.9924	89.4859	88.356	80.8235	85.3995	
417.337	229.18	5.01953	98.4336	98.9068	99.2853	92.85	95.1213	92.0929	96.2569	90.1813	
417.543	235.965	2.5999	100.45	97.9823	101.373	96.4751	94.2143	96.8519	88.5624	92.839	
417.749	241.266	2.76661	102.654	95.0796	100.342	104.101	98.8386	92.0725	95.0796	96.057	
417.955	247.295	2.52564	104.404	107.956	102.318	90.2916	97.4325	91.4191	97.8083	97.4889	
418.161	256.675	1.65869	110.537	104.166	102.658	102.281	109.444	93.9877	106.428	100.849	
418.367	261.486	3.65909	112.84	106.37	106.747	103.73	102.221	107.879	103.352	102.768	
418.574	268.779	0.971192	117.503	107.923	110.934	113.569	107.923	108.676	119.216	107.998	
418.78	276.518	3.41754	118.822	125.282	119.599	111.263	110.506	118.083	108.232	110.316	
418.986	282.554	3.93903	121.129	119.959	118.073	122.223	110.527	112.791	112.791	112.527	
419.192	291.893	1.73894	125.434	126.587	118.271	116.003	117.893	117.515	103.528	115.398	
419.398	301.295	3.58973	130.529	132.025	123.316	123.694	116.121	116.5	122.18	120.646	
419.604	309.656	2.15772	133.141	131.203	126.645	131.583	127.784	130.444	124.365	123.853	
419.809	318.586	3.86864	138.751	128.492	131.147	131.147	125.458	124.699	133.043	127.316	
420.015	325.895	1.21212	141.474	134.485	130.697	132.213	123.122	128.425	129.561	129.978	
420.221	334.686	3.34298	143.984	143.756	140.329	136.141	133.856	137.283	134.618	135.151	
420.427	345.604	1.68781	149.734	139.233	142.288	143.815	137.706	144.579	130.832	137.457	
420.633	355.673	2.49614	153.784	150.158	137.944	143.669	143.288	141.761	141.379	142.238	
420.839	364.092	4.06824	157.084	153.085	150.799	152.704	147.752	154.989	146.99	146.418	
421.044	372.952	3.16805	164.136	160.166	149.479	152.15	151.387	149.479	151.005	149.04	
421.25	381.507	2.46972	164.362	160.372	162.272	158.852	156.953	154.673	145.174	152.051	
421.456	392.643	3.36614	172.766	169.091	165.284	160.714	157.668	159.191	147.767	159.248	
421.662	404.167	1.56067	177.79	169.891	167.979	164.153	155.738	169.509	158.033	162.604	
421.867	413.02	1.2831	181.451	175.074	168.582	171.255	169.728	172.783	169.728	168.334	
422.073	426.175	3.62204	188.239	174.876	182.534	177.556	179.854	174.876	176.408	173.153	
422.278	437.502	3.26454	191.24	183.828	181.908	171.922	181.908	174.994	188.053	178.566	
422.484	446.235	2.0328	197.236	185.461	176.256	183.543	178.94	185.077	181.625	180.283	
422.69	457.936	1.5822	200.508	185.354	187.265	191.087	181.15	187.265	194.527	186.367	
422.895	469.599	2.65821	210.121	202.843	188.671	196.715	187.139	182.543	190.587	191.238	
423.101	481.264	1.91672	213.882	202.344	210.777	200.427	194.294	198.127	204.644	195.137	
423.306	496.531	2.61223	219.946	214.625	204.253	205.021	214.625	205.021	198.491	200.085	
423.512	509.557	2.47538	227.634	210.616	217.578	210.229	214.097	211.003	198.239	205.182	
423.717	518.512	1.90055	230.682	224.873	213.716	213.331	224.488	220.256	213.331	209.234	
423.922	533.89	5.08231	238.842	222.216	232.643	221.444	217.968	214.106	214.106	217.601	
424.128	543.136	2.5295	240.768	243.209	222.835	227.063	224.372	222.835	221.681	220.278	
424.333	560.164	3.256	251.069	241.223	240.835	228.044	219.516	229.982	228.044	228.238	
424.539	569.967	3.98055	254.489	239.967	239.195	234.181	234.181	228.396	238.424	232.638	
424.744	585.326	7.03143	258.469	254.233	245.761	252.308	240.37	235.749	226.893	234.498	
424.949	598.627	2.97166	268.618	263.278	249.349	243.545	241.61	243.545	242.384	243.525	
425.154	614.782	3.27671	275.217	265.049	253.817	264.275	260.014	256.141	253.43	252.791	
425.36	629.933	4.05629	283.201	267.081	265.145	262.436	254.695	257.791	254.308	255.972	
425.565	646.47	3.96545	288.605	280.205	272.444	268.564	276.324	272.832	246.448	262.376	
425.77	664.437	4.36992	298.874	288.259	287.483	285.931	288.647	277.393	263.809	271.067	
425.975	680.941	2.89855	305.696	290.813	277.957	284.58	279.905	270.165	283.801	279.788	
426.18	699.676	1.53638	312.209	287.974	291.093	292.653	285.634	286.414	289.143	284.464	
426.385	715.239	5.19159	322.148	309.578	292.039	299.054	290.869	282.295	293.208	290.324	
426.591	734.77	3.20737	334.314	310.669	313.798	303.238	302.846	310.669	299.326	300.969	
426.796	751.175	2.95173	336.84	330.593	318.099	316.147	303.653	303.263	307.948	306.816	
427.001	770.218	3.8482	345.877	329.017	320.041	323.163	317.309	309.503	324.724	318.948	
427.206	788.669	5.08819	355.88	345.331	341.417	325.37	323.022	321.456	323.022	322.728	
427.411	806.879	4.50556	362.553	343.369	332.418	327.725	322.641	331.636	335.547	329.661	
427.616	826.03	3.68193	374.966	363.509	359.592	343.924	335.307	335.307	341.965	338.303	
427.821	844.926	4.39442	382.28	369.554	364.862	356.652	350.788	370.336	354.306	346.057	
428.026	858.903	5.46587	390.996	369.79	383.007	371.733	358.127	346.076	345.687	354.278	
428.23	886.53	5.3467	400.058	379.452	379.842	376.33	358.767	357.987	360.328	363.216	
428.435	905.37	2.34328	411.428	395.275	395.664	392.939	378.148	362.967	374.644	372.27	
428.64	920.469	3.99068	420.107	402.013	396.201	386.515	390.002	374.892	364.043	378.824	
428.845	944.014	5.30589	427.883	414.27	401.876	383.286	389.87	396.842	391.807	387.179	
429.05	965.766	2.85853	436.565	419.055	408.268	401.334	404.801	399.793	401.334	395.574	
429.254	988.89	4.03395	451.242	422.475	423.635	412.816	417.066	404.701	401.224	407.503	
429.459	1004.84	2.85301	456.136	446.741	428.718	419.899	421.049	411.462	417.598	415.354	
429.664	1038.64	5.14175	472.232	453.202	437.328	435.392	426.099	434.23	412.935	425.519	
429.869	1054.37	3.10898	480.668	458.08	446.949	448.1	436.586	431.212	444.646	432.843	
430.073	1075.46	3.72681	486.299	464.934	456.916	462.643	450.043	444.315	440.496	441.986	
430.278	1094.21	5.76752	501.74	479.38	462.663	456.964	456.964	454.684	448.605	454.684	
430.483	1119.72	3.77602	512.306	491.701	466.3	469.712	465.163	468.196	470.091	461.694	
430.687	1140.11	2.22188	520.593	515.378	479.481	480.614	463.232	465.877	464.366	471.545	
430.892	1170.4	5.57822	533.328	494.761	500.052	504.209	495.516	481.155	480.399	484.216	
431.096	1191.37	3.87587	542.667	510.343	516.74	499.43	503.193	493.409	490.023	491.603	
431.301	1217.04	7.15405	556.673	529.677	511.304	515.054	514.304	499.681	508.68	504.218	
431.505	1237.85	4.74976	569.83	543.094	532.638	526.29	515.835	515.088	521.809	510.065	
431.71	1271.77	3.39578	584.647	551.755	538.666	552.129	527.072	519.966	538.666	524.697	
431.914	1299.41	4.13684	592.906	564.339	560.24	547.568	531.915	540.86	528.188	534.599	
432.118	1328.38	4.79547	610.92	579.961	570.653	572.515	547.57	533.421	543.474	551.982	
432.323	1358.67	4.28646	620.773	579.243	589.255	567.377	549.95	557.737	567.377	559.999	
432.527	1387.24	6.05483	635.894	601.171	593.049	590.464	587.141	578.281	576.435	572.817	
432.732	1420.3	5.74322	652.991	609.88	607.3	601.402	580.759	593.661	569.331	587.025	
432.936	1448.67	6.74708	666.521	624.929	620.534	620.534	606.248	599.655	604.783	600.79	
433.14	1484.42	5.75327	681.598	637.078	635.25	636.712	619.167	610.76	605.278	612.277	
433.344	1517.35	4.64453	697.221	656.145	647.773	648.501	627.025	615.742	623.022	624.841	
433.549	1556.81	4.71114	714.352	687.507	674.784	658.789	646.43	651.882	645.339	638.796	
433.753	1583.12	7.84246	730.62	693.971	673.029	666.891	661.836	643.782	659.308	653.694	
433.957	1624.36	13.6029	749.751	709.469	699.011	681.34	685.307	667.275	671.242	667.329	
434.161	1660.23	21.9883	762.151	720.32	712.761	703.401	700.881	682.881	681.801	687.561	
434.365	1690	31.639	779.28	743.681	728.312	724.737	720.091	695.786	710.083	698.663	
434.57	1716.07	45.0208	793.152	748.723	726.411	729.952	721.806	720.036	716.494	709.783	
434.774	1753.7	55.8226	807.361	768.589	755.894	735.441	732.267	737.204	722.746	726.237	
434.978	1791.36	68.8365	828.495	796.674	771.723	756.612	746.42	730.255	733.418	742.449	
435.182	1833.54	76.9644	843.915	805.927	768.746	785.583	768.045	750.507	748.051	754.207	
435.386	1870.35	82.4846	862.942	824.329	811.044	797.06	789.718	747.417	759.653	767.396	
435.59	1904.92	85.4578	878.308	845.541	829.888	813.54	802.061	776.321	782.93	787.852	
435.794	1940.23	83.3099	898.858	844.18	838.286	828.924	822.337	799.453	797.026	803.319	
435.998	1980.46	76.8445	922.916	880.94	839.76	844.605	832.839	838.376	825.572	823.668	
436.201	2027.25	72.728	940.234	883.495	886.267	864.79	848.164	842.621	829.112	839.244	
436.405	2051.93	60.7275	952.162	915.714	887.889	875.179	852.85	843.575	835.674	849.278	
436.609	2097.57	48.3076	974.193	919.974	907.952	904.174	884.595	873.603	865.36	870.856	
436.813	2137.56	34.6075	992.806	939.749	923.276	909.891	909.205	880.72	876.945	884.838	
437.017	2172.03	27.3858	1008.29	959.402	935.512	920.494	907.184	894.556	904.795	901.057	
437.221	2216.04	23.0741	1033.54	977.937	958.145	942.79	928.117	931.529	918.904	921.906	
437.424	2251.26	19.5957	1048.21	1017.68	969.732	956.809	948.987	931.642	914.298	938.597	
437.628	2293.53	15.1654	1072.03	1018.25	992.815	979.59	965.347	977.894	949.408	958.242	
437.832	2330.82	15.133	1089.41	1037.47	1021.56	999.568	971.482	979.942	958.623	974.916	
438.036	2365.89	13.9782	1107.21	1040.85	1041.19	1005.51	1013.92	991.029	982.613	992.325	
438.239	2413.34	11.5865	1127.73	1060.7	1054.63	1043.17	1026.66	1009.14	1009.47	1010.72	
438.443	2450.7	8.96242	1154.73	1099.6	1076.39	1067.31	1045.44	1018.86	1024.58	1027.39	
438.646	2473.7	7.42876	1168.14	1111.17	1087.48	1072.79	1070.12	1030.74	1034.08	1041.15	
438.85	2510.36	9.555	1182.14	1128.9	1078.3	1078.63	1059.32	1074.97	1042.67	1058.02	
439.054	2535.82	6.97625	1195.93	1137.7	1119.19	1087.78	1098.03	1070.92	1073.23	1072.14	
439.257	2567.85	4.75007	1215.57	1169.15	1131.82	1116.62	1098.13	1075.99	1082.93	1092.89	
439.461	2596.63	7.83677	1233.99	1173.11	1153.36	1129.65	1116.48	1111.21	1097.38	1104.26	
439.664	2623.7	8.12445	1249.26	1201.26	1170.7	1149.01	1117.78	1125.34	1104.96	1119.21	
439.868	2651.16	5.2017	1265.55	1197.33	1194.71	1154.69	1137.31	1130.09	1131.73	1133.14	
440.071	2669.98	4.70114	1277.92	1220.57	1191.56	1182.1	1154.39	1142.98	1130.92	1144.6	
440.274	2692.07	6.30369	1287.93	1218.24	1208.48	1190.92	1171.73	1156.11	1151.88	1158.59	
440.478	2708.43	5.52921	1300.29	1230.06	1208.67	1203.48	1183.71	1163.94	1154.22	1163.44	
440.681	2728.02	5.20256	1315.19	1249.77	1213.82	1209.6	1193.73	1168.79	1171.05	1179.15	
440.885	2737.76	6.16968	1321.01	1269.04	1252.26	1222.89	1200.31	1185.46	1180.95	1184.96	
441.088	2745.2	4.3621	1328.06	1268.95	1241.01	1226.55	1206	1195.4	1186.72	1192.84	
441.291	2763.62	5.07574	1339.21	1290.75	1258.67	1242.95	1226.9	1210.22	1204.12	1204.04	
441.494	2756.89	7.08626	1341.6	1276.45	1256.02	1256.02	1212.61	1207.82	1182.93	1209.07	
441.698	2755.65	5.60892	1343.5	1290.78	1253.57	1239.58	1229.73	1201.43	1193.48	1211.89	
441.901	2777.29	6.61591	1357.8	1320.15	1267.19	1258.26	1228.28	1212.96	1227.64	1224.74	
442.104	2773.43	5.21508	1356.83	1303.4	1280.19	1249.34	1233.13	1232.49	1228.99	1224.68	
442.307	2769.07	6.77738	1360.23	1300.59	1259.98	1274.57	1240.62	1238.08	1247.6	1229.39	
442.51	2770.22	4.85428	1363.46	1315.46	1270.47	1257.47	1253.99	1236.24	1235.61	1233.42	
442.713	2765.43	5.30667	1363.67	1302.18	1278.75	1276.22	1245.82	1236.95	1228.41	1237.89	
442.916	2746.94	7.30109	1363.12	1306.94	1283.91	1250.47	1245.1	1231.85	1232.8	1234.11	
443.12	2737.03	6.94124	1363.58	1298.93	1287.58	1264.23	1257.92	1250.98	1225.73	1235.72	
443.323	2717.94	6.14427	1353.56	1302.07	1261.19	1247.04	1253.96	1230.06	1213.71	1229.54	
443.526	2696.45	5.41865	1347.37	1305.69	1261.48	1247.99	1224.48	1218.52	1231.37	1228.57	
443.729	2683.77	7.43832	1341.61	1302.43	1268.53	1256.6	1227.42	1211.72	1214.23	1222.24	
443.932	2660.2	5.49117	1332.67	1291.27	1240.49	1229.83	1227.33	1211.34	1196.92	1213.49	
444.134	2643.43	4.44105	1327.42	1268.1	1240.85	1249.93	1226.13	1211.1	1197.63	1212.87	
444.337	2610.46	5.06727	1318.18	1274.57	1254.88	1241.76	1219.89	1193.03	1203.65	1201.48	
444.54	2582.76	5.35382	1305.52	1254.98	1237.51	1210.05	1209.74	1183.22	1184.47	1192.39	
444.743	2548.8	4.9528	1285.14	1246.39	1216.56	1211.9	1201.96	1181.14	1187.98	1180.02	
444.946	2515.79	5.86102	1276.02	1234.34	1195.27	1186.28	1179.76	1169.22	1160.85	1165.22	
445.149	2495.77	5.56887	1271.01	1214.31	1200.93	1190.36	1164.22	1165.78	1137.47	1162.51	
445.352	2459.77	5.76632	1254.6	1205.4	1175.91	1169.71	1164.43	1148.6	1142.71	1148.53	
445.554	2429.57	5.87771	1242.74	1188.05	1170.98	1164.15	1154.84	1135.91	1138.7	1140.41	
445.757	2392.24	6.22066	1222.19	1178.08	1154.84	1132.54	1158.56	1117.98	1121.39	1123.24	
445.96	2361.01	4.77352	1207.56	1171.78	1165.27	1129.62	1138.92	1109.78	1096.14	1111.97	
446.162	2329.82	4.52772	1196.34	1143.56	1127.72	1111.58	1115.3	1102.88	1085.49	1098.86	
446.365	2288.61	6.78679	1175.78	1117.54	1131.77	1091.86	1101.14	1092.17	1073.92	1081.45	
446.568	2257.15	5.27756	1161.02	1118.79	1116.62	1092.77	1082.86	1070.47	1068.92	1071.23	
446.77	2219.82	5.80189	1146.12	1115.14	1080.74	1066.17	1066.79	1058.73	1036.11	1054.8	
446.973	2177.8	4.86503	1123.73	1084.72	1066.8	1052.89	1051.96	1050.41	1020.43	1035.93	
447.175	2145.86	4.93509	1105.38	1065.03	1039.98	1032.25	1035.03	1026.07	1029.78	1027.55	
447.378	2105.67	6.55363	1086.85	1039.19	1035.18	1014.48	1005.84	1014.79	997.807	1004.88	
447.58	2074.95	6.87642	1071.79	1047.33	1013.9	1021.95	1009.26	994.717	968.722	994.655	
447.783	2041.03	5.0175	1056.94	1017.94	1012.05	997.763	994.658	979.754	968.266	980.142	
447.985	2001.53	6.8203	1038.2	1006.5	967.163	972.738	964.685	970.88	968.712	961.897	
448.188	1971.78	5.96783	1019.3	1007.16	971.763	965.242	957.48	951.58	937.607	943.476	
448.39	1934.12	5.7183	1003.03	969.726	960.433	944.325	930.075	932.244	922.021	931.531	
448.593	1904.19	6.3669	990.069	955.085	947.949	934.297	930.263	923.747	904.2	915.509	
448.795	1875.17	5.17389	972.932	923.675	917.471	932.36	908.166	909.096	903.513	902.846	
448.997	1840.25	7.01937	956.21	929.949	904.526	893.674	892.434	886.543	875.382	882.745	
449.2	1815.69	5.47103	939.023	921.918	894.315	889.042	871.674	866.401	876.016	871.116	
449.402	1796.58	4.72281	929.409	892.275	880.436	881.994	878.879	864.237	859.252	859.984	
449.604	1763.11	5.14246	910.706	882.416	877.137	862.232	853.537	841.115	827.452	841.379	
449.806	1748.42	5.1984	905.99	874.094	858.786	857.849	852.226	838.48	830.357	836.027	
450.009	1719.09	6.44263	887.818	862.708	835.915	846.508	820.65	816.288	817.534	823.594	
450.211	1695.76	6.84686	871.83	836.008	834.763	832.273	818.891	814.223	813.6	810.41	
450.413	1674.7	5.09339	861.291	829.543	826.426	817.698	801.177	794.008	794.943	799.946	
450.615	1653.22	4.49441	855.013	827.04	812.391	800.859	783.717	789.95	778.107	787.566	
450.817	1636.24	6.36751	845.248	806.815	794.03	801.202	775.632	779.062	781.557	779.031	
451.019	1624.27	5.82494	831.795	818.467	791.28	786.592	763.78	772.218	759.093	770.968	
451.221	1605.77	7.03446	821.996	781.612	781.612	778.179	760.078	759.766	758.517	761.545	
451.423	1592.38	4.938	816.066	792.002	780.737	755.702	767.281	766.029	752.573	755.28	
451.625	1579.47	7.06892	808.612	781.532	771.514	755.548	755.548	732.694	743.338	743.291	
451.827	1556.44	4.74012	799.889	770.107	762.311	752.956	746.095	728.319	733.621	734.026	
452.029	1554.31	7.69173	795.592	768.771	750.891	744.617	725.168	726.423	739.912	734.14	
452.231	1539.71	5.25981	785.286	757.023	747.282	734.714	740.37	730.001	718.061	724.927	
452.433	1526.8	6.66151	780.313	756.549	733.319	725.47	716.681	714.797	722.331	715.519	
452.635	1511.24	6.45286	766.682	748.086	739.298	725.488	715.759	698.183	709.796	709.984	
452.837	1502.23	5.67286	762.607	728.338	729.28	716.716	706.35	700.696	694.1	701.701	
453.039	1490.39	5.58297	755.276	734.608	717.909	716.649	704.046	695.225	684.197	698.879	
453.24	1474.73	4.5634	751.327	736.179	708.836	703.808	712.293	689.665	681.493	688.659	
453.442	1464.76	5.65349	742.904	713.77	708.098	694.547	678.79	680.366	683.202	682.525	
453.644	1451.91	5.46828	736.674	700.198	701.143	686.023	691.063	673.739	676.573	678.038	
453.846	1444.43	5.97614	732.755	698.489	693.44	689.023	686.499	673.246	666.305	671.195	
454.047	1431.11	6.31485	724.277	697.939	697.308	685.322	663.873	667.027	673.336	667.863	
454.249	1430.57	3.63418	724.198	692.455	679.453	669.305	669.939	677.867	655.352	664.025	
454.451	1420.29	5.08075	718.036	695.721	677.032	675.765	674.181	657.71	654.859	658.375	
454.652	1409.7	6.65244	714.415	681.834	680.883	654.882	664.712	655.516	648.857	655.786	
454.854	1399.82	4.99254	705.962	681.333	659.764	652.151	641.367	651.517	639.464	650.645	
455.056	1397.13	4.38262	703.814	686.312	666.884	665.928	650.321	653.188	649.047	646.388	
455.257	1387.07	5.4276	698.822	677.357	664.646	661.468	644.308	641.13	635.092	640.415	
455.459	1379.9	4.49756	697.601	681.046	655.847	646.277	643.725	628.734	643.725	637.41	
455.66	1375.57	6.27651	693.538	664.093	659.93	653.525	635.913	646.801	631.109	636.633	
455.862	1364.44	4.4674	687.134	666.472	658.176	644.454	650.198	618.288	629.138	629.6	
456.063	1351.93	4.04733	679.104	649.9	628.48	638.391	647.022	618.889	634.554	628.64	
456.265	1342.31	6.40639	675.762	652.218	629.52	628.242	633.676	621.209	615.774	622.839	
456.466	1325.93	4.40852	668.519	641.969	639.102	626.998	619.99	615.212	614.575	614.241	
456.667	1321.84	4.20439	668.591	648.065	623.748	625.347	625.027	617.988	607.749	614.884	
456.869	1308.16	4.55132	663.149	632.27	636.738	625.567	595.885	600.991	603.226	607.215	
457.07	1297.57	4.36897	651.599	634.362	614.271	611.401	618.417	602.79	593.542	601.451	
457.271	1287.12	6.71073	652.52	636.779	618.918	607.117	608.393	598.186	591.488	595.379	
457.473	1278.94	6.41217	645.349	621.112	606.742	604.826	609.296	589.178	588.859	593.681	
457.674	1267.13	4.82948	639.234	614.207	608.45	593.738	596.617	584.463	574.868	588.029	
457.875	1259.92	4.20525	635.482	618.626	594.979	599.772	591.784	588.269	569.096	582.9	
458.076	1249.84	5.96928	629.573	598.111	592.033	599.071	583.716	582.756	582.436	579.285	
458.277	1238.77	3.62158	624.221	605.681	591.924	580.087	573.369	584.886	568.89	575.016	
458.479	1223.58	4.00496	620.447	600.629	593.603	572.844	567.734	565.818	558.791	569.331	
458.68	1216.53	5.32749	614.29	587.813	576.914	572.426	573.388	574.67	553.194	565.999	
458.881	1207.99	5.72871	611.729	582.909	583.872	575.523	567.495	566.532	565.569	562.663	
459.082	1192.24	5.06713	602.034	586.083	565.584	564.303	557.576	562.061	561.1	555.382	
459.283	1182.69	5.04094	597.835	576.954	565.104	558.699	551.333	549.091	545.248	550.916	
459.484	1175.67	4.72326	593.961	586.539	563.726	560.191	539.306	549.267	557.621	547.371	
459.685	1161.53	4.60142	588.808	578.683	559.457	543.435	540.231	542.794	541.513	541.24	
459.886	1149.93	5.9617	583.891	557.972	555.731	555.091	544.205	542.284	531.718	538.121	
460.087	1143.62	5.68883	574.934	566.003	547.083	541.311	527.842	543.235	530.087	533.358	
460.288	1128.92	4.33375	568.779	551.728	542.78	543.738	532.872	525.841	520.727	525.585	
460.489	1124.51	5.12195	568.6	550.276	539.685	536.797	529.095	525.564	528.774	522.74	
460.69	1113.21	5.18154	562.213	546.812	527.621	534.018	520.265	512.269	525.702	517.482	
460.89	1102.92	3.00093	556.296	548.601	529.726	527.806	520.448	512.13	508.93	513.649	
461.091	1087.14	5.50122	550.771	545.26	524.175	504.688	510.757	517.147	506.285	511.348	
461.292	1080.51	5.00467	544.509	518.095	521.611	518.734	511.064	510.425	510.425	503.298	
461.493	1071.02	4.38189	540.76	528.654	507.864	508.504	501.467	516.18	488.993	499.148	
461.694	1064.13	4.58652	536.357	511.842	515.68	502.566	502.886	492.971	493.93	495.21	
461.894	1049.19	6.18106	530.136	524.076	493.458	483.252	485.484	490.906	485.484	488.689	
462.095	1042.02	4.54813	523.48	508.659	505.797	501.026	489.894	478.126	487.35	487.588	
462.296	1025.94	3.02347	515.553	496.799	477.19	492.055	485.413	481.934	479.088	476.874	
462.496	1015.93	3.73559	512.211	503.062	490.441	485.078	481.607	474.035	475.928	475.565	
462.697	1010.17	3.84596	507.689	489.484	476.874	478.451	474.668	469.624	456.699	469.844	
462.898	1002.86	4.37663	502.19	499.753	466.74	478.059	466.74	456.679	454.163	465.482	
463.098	991.939	4.20202	497.166	482.7	478.629	473.306	459.842	469.549	453.893	460.75	
463.299	987.216	3.64111	494.778	477.542	462.527	464.404	462.527	450.328	455.958	457.225	
463.499	975.197	4.06902	486.44	464.992	459.712	458.78	452.879	455.053	445.424	452.63	
463.7	970.458	3.9326	482.064	479.206	471.44	463.053	454.045	441.93	440.066	449.245	
463.9	964.649	4.09279	483.619	470.453	450.89	448.405	448.716	446.232	442.816	447.474	
464.101	954.72	5.36016	475.552	462.661	451.224	454.624	448.442	443.187	454.624	444.902	
464.301	948.532	3.46231	472.532	455.189	445.64	443.176	442.868	432.703	427.158	435.213	
464.501	944.029	6.14257	470.187	464.263	438.412	450.414	442.413	419.024	435.95	434.519	
464.702	937.825	3.67306	465.135	457.256	448.977	440.086	429.662	440.393	422.917	433.019	
464.902	932.516	5.47548	463.692	450.447	439.116	446.16	426.255	423.498	432.379	427.786	
465.103	929.173	6.29683	456.953	445.696	431.052	437.459	432.883	420.68	428.001	424.707	
465.303	923.547	4.84378	456.939	442.087	444.829	428.379	424.114	422.895	417.412	424.54	
465.503	921.652	2.8666	455.926	437.44	446.265	424.658	423.137	421.92	411.877	423.015	
465.703	913.924	4.96596	453.097	436.392	430.935	426.69	421.233	413.654	419.111	419.839	
465.904	915.802	3.29076	450.829	447.253	430.284	426.951	414.527	423.315	425.436	417.845	
466.104	915.698	4.43623	450.017	436.567	432.027	434.146	421.134	415.687	418.107	417.805	
466.304	912.541	3.59292	447.832	432.267	431.06	427.135	414.152	417.473	404.792	412.174	
466.504	909.691	4.00081	446.79	434.076	427.147	423.833	418.109	419.013	416	410.999	
466.704	906.098	3.98624	442.385	437.275	421.09	419.292	404.606	412.099	408.203	410.42	
466.904	906.146	4.70534	443.98	434	416.617	419.015	409.125	411.222	415.119	409.274	
467.104	903.118	3.43126	439.779	425.726	414.985	410.211	408.719	407.526	406.631	406.064	
467.304	901.461	4.33341	434.969	418.108	422.275	413.941	412.156	402.036	403.227	403.673	
467.504	898.813	5.24492	437.485	426.64	416.861	395.526	402.638	399.675	408.564	402.445	
467.704	899.612	3.38625	437.016	418.042	412.418	417.45	401.17	406.794	405.906	405.166	
467.904	893.973	3.59851	432.167	417.168	402.199	411.005	413.646	398.97	391.926	398.369	
468.104	901.759	4.72681	434.092	415.39	420.675	413.335	408.344	400.711	403.353	404.116	
468.304	899.502	3.02406	431.232	419.168	408.932	398.988	395.186	402.79	402.205	401.474	
468.504	901.387	2.95313	431.064	411.959	405.552	413.415	406.717	393.029	386.622	398.198	
468.704	900.824	2.6871	431.042	404.215	407.407	403.054	410.889	398.991	396.09	397.279	
468.904	902.523	2.3216	434.781	419.729	403.518	411.623	406.702	400.044	402.65	399.103	
469.104	900.301	2.79695	428.63	407.768	408.055	398.56	410.357	399.711	404.315	399.552	
469.304	901.482	2.57242	431.035	410.507	397.013	403.042	401.607	396.152	392.42	397.989	
469.503	904.504	3.40797	430.504	414.61	401.436	406.018	397.999	395.708	384.539	395.694	
469.703	906.422	2.40253	430.704	423.44	405.707	407.995	404.276	385.113	400.272	396.44	
469.903	908.87	3.15815	428.426	426.231	401.718	401.718	404.854	402.574	393.167	395.448	
470.103	905.171	3.38425	432.064	415.186	409.8	405.832	398.179	399.313	396.762	397.06	
470.302	907.802	2.6577	430.267	415.297	407.946	397.484	389.002	394.657	394.092	396.707	
470.502	912.301	3.44501	432.163	416.858	409.516	413.752	403.868	396.809	392.008	396.851	
470.701	915.209	3.85814	428.341	416.679	407.655	402.296	397.22	397.22	393.835	398.037	
470.901	917.886	4.4432	431.943	413.482	417.981	400.546	394.078	400.546	397.452	401.614	
471.101	913.425	2.85552	432.091	416.263	414.028	399.219	407.043	405.366	392.514	398.633	
471.3	921.286	3.83951	434.761	409.458	409.737	402.472	400.236	394.927	398.839	398.63	
471.5	923.236	3.56086	433.39	416.42	410.022	408.352	391.105	395.277	395.834	397.726	
471.699	924.715	2.48044	436.147	419.194	413.922	411.425	408.373	390.894	397.275	398.787	
471.899	927.485	2.52213	432.324	424.47	403.175	399.58	404.558	402.346	398.474	401.405	
472.098	932.876	3.70768	434.188	423.316	409.502	412.265	397.346	399.556	401.766	401.048	
472.298	934.821	3.59205	434.475	421.026	413.577	401.438	412.749	406.68	403.921	400.734	
472.497	933.65	4.58363	436.411	424.444	411.544	404.408	409.897	402.761	398.095	401.114	
472.696	938.254	3.33746	435.112	421.531	415.208	417.957	404.761	391.84	389.916	402.095	
472.896	941.629	2.71768	435.515	414.515	424.672	401.613	400.789	402.985	402.711	403.315	
473.095	942.535	3.64173	435.733	424.825	416.896	416.076	412.521	416.622	404.319	403.704	
473.294	941.989	3.01162	436.825	428.545	415.451	403.448	402.357	403.994	395.81	403.844	
473.494	947.09	2.9122	437.856	418.682	422.764	415.688	410.516	401.535	402.624	403.032	
473.693	950.291	3.08652	437.023	424.294	422.392	419.131	397.939	401.743	408.535	403.699	
473.892	954.287	2.65584	439.346	425.374	421.572	418.585	413.968	407.723	402.02	406.188	
474.091	957.38	4.37967	438.501	424.855	425.668	417.537	410.491	397.211	406.968	405.992	
474.29	962.833	1.6681	436.868	426.551	415.177	419.51	401.367	411.657	409.22	405.659	
474.49	962.981	2.20039	440.537	426.373	428.535	419.885	414.479	405.017	414.479	408.14	
474.689	962.114	3.36351	440.072	424.893	419.789	409.58	411.192	396.685	406.893	405.443	
474.888	964.979	2.66403	441.259	426.866	427.939	417.754	421.774	413.198	415.074	406.739	
475.087	969.505	3.66713	440.123	429.279	418.021	425.526	411.587	415.608	397.916	407.727	
475.286	971.779	2.20464	440.951	428.871	411.48	427.266	412.818	407.2	405.059	409.755	
475.485	976.06	2.561	441.722	428.996	415.153	419.146	411.959	402.907	406.634	408.405	
475.684	976.813	2.34716	442.256	433.421	426.502	416.656	412.132	418.252	411.599	412.211	
475.883	980.045	1.90006	444.063	432.121	414.607	412.749	410.626	410.095	410.361	410.905	
476.082	981.754	2.98459	442.851	428.563	419.038	413.482	416.392	416.657	410.042	410.452	
476.281	986.093	2.27371	441.917	425.538	413.641	410.468	412.055	414.434	407.296	410.627	
476.48	985.696	2.56501	444.724	434.756	419.482	422.115	410.001	408.948	418.692	411.713	
476.678	989.143	2.41966	444.442	428.859	414.657	422.021	412.29	416.498	410.712	409.712	
476.877	989.342	3.77744	443.505	432.894	426.074	412.695	412.171	412.695	412.433	412.079	
477.076	996.643	1.89185	444.18	432.855	424.71	417.615	425.498	416.302	415.251	409.615	
477.275	999.898	3.23831	446.499	433.766	428.526	418.046	413.33	408.352	415.426	414.365	
477.474	1004.41	2.71432	445.95	441.103	430.361	412.283	416.999	410.711	408.877	413.174	
477.672	1007.18	3.93979	447.927	433.983	434.245	429.275	417.764	411.747	418.549	416.103	
477.871	1010.93	4.23067	448.731	441.326	426.385	415.114	422.453	422.715	415.376	415.926	
478.07	1013.96	3.58808	450.187	426.354	426.615	423.473	414.83	423.211	419.02	416.846	
478.269	1021.27	2.14933	452.171	441.779	432.582	422.598	421.809	415.503	419.445	419.077	
478.467	1019.98	3.22903	448.513	437.632	422.741	422.48	420.912	414.642	415.426	419.018	
478.666	1027.15	3.15058	450.279	442.651	426.951	423.81	425.642	415.175	418.054	419.637	
478.864	1024.75	2.34767	450.823	428.768	434.246	422.246	422.507	415.464	417.551	418.399	
479.063	1033.17	2.89453	452.597	430.443	430.181	425.994	425.732	420.76	422.592	422.775	
479.262	1038.32	2.97439	451.801	432.046	432.831	428.904	426.024	417.907	425.5	422.175	
479.46	1041.69	3.74248	453.892	438.582	431.516	433.871	426.805	431.778	415.552	421.99	
479.659	1049.34	2.82954	457.017	446.171	439.621	433.333	433.857	424.425	425.211	422.395	
479.857	1049.51	2.96737	454.416	434.843	434.058	425.946	425.161	422.021	422.283	425.881	
480.055	1053.22	2.67248	455.668	441.862	438.208	430.639	435.337	418.634	428.812	423.854	
480.254	1060.96	3.39276	459.484	441.227	435.476	432.078	438.874	423.714	417.179	425.439	
480.452	1064.97	4.91787	457.229	450.074	442.227	438.564	426.793	437.518	423.131	427.094	
480.651	1066.08	4.59006	459.262	440.584	430.945	428.079	427.298	440.844	421.306	427.402	
480.849	1073.58	3.44349	463.951	433.383	445.14	432.86	428.68	420.842	425.284	428.184	
481.047	1074.37	4.45991	460.235	444.727	433.538	435.099	421.569	434.839	436.4	429.219	
481.246	1081.3	3.75429	463.91	447.286	435.05	446.766	433.227	424.115	427.76	431.769	
481.444	1084.83	3.20787	462.378	451.498	443.96	429.402	440.58	435.641	439.021	431.586	
481.642	1094.98	4.02337	464.725	452.319	440.316	444.491	446.057	430.402	426.227	434.824	
481.84	1094.79	4.52289	465.123	446.573	439.017	444.488	443.967	440.059	429.898	435.044	
482.039	1100.55	5.89647	466.098	455.289	445.913	438.881	452.685	436.798	429.245	434.792	
482.237	1106.1	4.99432	468.854	454.624	449.416	447.593	445.249	445.77	434.834	434.678	
482.435	1110.11	5.01725	467.382	449.892	451.458	443.888	441.539	433.185	438.145	435.039	
482.633	1114.28	8.25532	468.371	453.855	444.978	447.589	443.672	443.15	446.544	438.294	
482.831	1120.63	6.85857	470.697	460.56	451.667	458.991	453.759	438.065	429.694	440	
483.029	1126.51	7.99198	473.142	462.26	443.906	454.656	441.546	445.217	441.284	438.846	
483.227	1130.33	6.59041	472.187	458.269	456.695	454.072	453.547	448.3	437.281	442.607	
483.425	1137.89	7.70048	473.847	456.537	454.963	453.914	448.406	441.587	432.932	443.685	
483.623	1138.68	9.08765	476.554	463.727	450.101	457.962	453.507	435.164	446.432	444.362	
483.821	1147.7	10.3647	477.201	463.357	456.777	460.461	450.197	449.144	451.513	446.499	
484.019	1152.05	9.95684	477.434	456.395	457.447	459.025	457.447	445.612	443.771	445.888	
484.217	1157.88	9.95942	478.691	470.22	463.392	454.987	457.088	449.997	440.016	446.044	
484.415	1161.32	11.3011	480.283	461.214	459.364	468.086	454.607	456.721	448.264	450.986	
484.613	1170.86	12.0783	481.404	461.062	467.675	461.062	455.771	446.777	452.068	448.682	
484.811	1168.43	12.6113	481.429	462.218	472.986	455.39	446.198	459.067	438.582	451.464	
485.008	1175.02	14.8987	482.517	473.708	450.831	459.772	446.887	459.246	452.146	450.463	
485.206	1181.08	14.3562	482.802	462.743	464.323	456.684	454.84	468.538	452.47	452.443	
485.404	1187.72	13.8516	485.239	464.211	468.96	464.211	461.836	458.142	453.921	454.58	
485.602	1189.12	16.7444	486.723	477.335	465.733	462.832	454.921	462.041	444.637	454.209	
485.799	1201.33	15.5868	490.791	477.153	474.237	461.513	462.308	451.705	443.222	455.588	
485.997	1204.41	17.8785	491.381	478.821	470.333	476.699	462.375	463.17	462.64	460.306	
486.195	1208.75	16.6169	489.45	474.078	466.128	458.442	460.032	460.562	456.587	457.74	
486.392	1217.89	17.0115	492.514	475.396	479.656	470.87	469.007	457.826	454.365	462.391	
486.59	1221.64	16.5941	490.508	483.576	474.263	466.812	468.409	463.619	455.37	460.16	
486.788	1227	17.4335	495.195	481.694	481.161	468.632	469.965	469.432	466.499	463.301	
486.985	1230.27	17.5569	493.059	479.973	473.316	473.05	471.186	464.796	452.282	461.694	
487.183	1237.81	17.0053	493.236	477.601	477.601	471.192	469.323	465.851	467.987	465.704	
487.38	1239.05	17.9815	493.21	488.126	472.114	468.378	467.044	462.774	456.903	463.081	
487.578	1249.46	16.345	496.75	481.146	474.193	477.669	470.716	469.379	474.995	468.176	
487.775	1250.12	16.9524	494.986	477.011	482.896	473.534	474.872	472.464	459.626	466.633	
487.973	1255.2	17.4806	498.261	489.478	471.297	480.655	476.109	476.377	465.682	470.655	
488.17	1263.82	15.571	498.131	492.587	481.043	481.311	477.284	470.573	480.237	470.975	
488.367	1267.99	17.2228	498.66	495.965	476.656	483.361	481.483	470.488	476.12	472.271	
488.565	1276.84	16.0556	501.213	483.526	480.296	476.258	468.451	478.411	470.066	473.094	
488.762	1278.73	15.4866	498.828	493.07	490.11	483.653	473.429	476.389	481.501	472.77	
488.959	1281.78	15.1084	500.445	490.649	479.077	479.615	472.349	467.505	462.929	471.447	
489.157	1290.93	18.184	501.97	486.44	482.665	481.047	475.115	478.351	468.644	474.845	
489.354	1292.35	14.9145	503.639	498.978	479.58	487.124	468.265	471.229	468.804	473.101	
489.551	1297.28	14.7017	503.542	490.716	490.447	484.257	482.372	463.262	474.028	476.047	
489.749	1303.08	13.7894	504.327	503.207	490.524	490.254	482.699	482.969	481.619	476.546	
489.946	1309.82	14.4074	506.34	494.996	489.588	483.098	482.557	478.231	481.205	477.839	
490.143	1308.3	14.6892	504.318	489.596	491.487	490.136	481.492	484.464	484.194	479.21	
490.34	1316.8	14.8316	506.871	488.366	489.988	490.799	489.177	475.929	469.711	479.755	
490.537	1326.81	12.4664	508.969	492.34	488.265	484.461	481.2	485.004	471.69	483.414	
490.734	1330.54	14.3456	508.785	494.086	483.49	495.445	476.426	482.675	487.294	482.173	
490.931	1331.6	13.9063	508.263	499.239	498.424	485.92	485.648	488.91	482.114	483.365	
491.128	1340.14	13.7707	511.259	499.538	488.622	495.717	488.895	482.618	476.614	484.269	
491.325	1344.13	11.6046	509.854	493.022	491.658	493.568	495.75	488.658	470.381	481.715	
491.522	1351.39	12.7842	513.647	498.967	489.656	490.204	496.503	493.216	472.128	487.506	
491.719	1358.33	11.2733	509.834	498.336	501.08	495.043	484.889	489.829	482.419	486.975	
491.916	1364.84	11.1448	514.484	501.421	506.933	496.185	492.051	486.815	496.736	491.776	
492.113	1365.79	10.5177	512.58	503.582	499.186	503.032	487.921	491.767	485.173	489.872	
492.31	1376.72	13.0461	517.721	506.532	512.057	494.652	496.309	487.192	486.087	492.455	
492.507	1380.77	11.7381	520.004	504.433	499.736	495.591	496.696	493.657	487.854	490.976	
492.704	1381.03	12.1924	515.611	506.693	506.141	494.545	502.276	487.366	497.03	490.127	
492.901	1386.13	10.0729	516.214	511.709	510.879	497.335	497.335	489.871	481.855	492.041	
493.097	1394.76	10.1964	520.436	505.161	501.28	502.943	500.171	491.3	490.468	495.292	
493.294	1398.69	9.05166	518.312	508.808	512.137	491.603	500.483	491.048	495.211	495.28	
493.491	1402.01	9.45464	520.707	516.56	489.927	509.624	494.366	499.082	496.308	497.14	
493.688	1406.18	9.54753	519.366	512.406	501.06	505.211	490.821	501.06	496.079	497.352	
493.884	1412.94	9.45621	520.711	506.159	499.242	499.796	496.476	498.412	495.369	497.292	
494.081	1413.74	8.57584	517.754	509.352	507.696	503.282	504.661	485.07	502.178	495.997	
494.278	1421.74	8.8607	523.579	506.328	508.267	509.097	493.868	496.914	504.113	497.675	
494.474	1424.02	9.3854	518.669	511.496	502.944	501.565	487.495	493.012	495.771	495.647	
494.671	1424.71	8.36203	517.866	513.069	508.396	495.751	497.401	502.898	490.254	497.786	
494.867	1432.56	8.12858	519.119	512.933	509.075	499.155	506.319	500.809	497.226	499.073	
495.064	1436.17	8.66031	519.957	518.704	499.146	501.35	501.075	500.248	498.32	497.921	
495.26	1438.48	7.40698	520.489	510.295	502.041	508.094	496.262	502.591	495.712	497.102	
495.457	1450.38	8.37524	522.458	509.305	511.513	504.336	505.992	503.232	500.471	502.418	
495.653	1452.66	7.94994	521.372	509.028	505.994	495.787	499.097	498.546	498.27	498.808	
495.85	1455.04	7.32454	523.22	521.305	517.171	509.731	507.251	491.544	499.259	501.547	
496.046	1460.29	6.71667	521.246	519.48	512.581	520.032	499.611	496.3	500.439	504.095	
496.243	1466.32	7.25785	523.394	514.363	506.354	504.145	509.116	504.145	503.592	503.813	
496.439	1475.34	6.93527	523.403	527.247	510.379	512.314	505.954	504.848	511.485	505.816	
496.635	1477.78	7.63533	524.03	513.217	503.287	509.907	506.873	507.7	511.01	504.583	
496.832	1477.72	6.82113	522.72	521.37	502.637	511.177	503.188	512.004	499.607	505.378	
497.028	1489.03	8.15915	523.007	518.266	517.163	513.029	521.849	510.824	503.932	504.966	
497.224	1495.95	7.56716	523.808	528.041	514.804	505.979	503.773	502.67	502.394	506.351	
497.42	1500.27	6.53775	526.655	516.681	516.406	504.574	510.627	506.225	516.681	508.013	
497.617	1510.41	7.17254	527.466	524.241	513.766	523.138	517.074	501.637	512.939	509.217	
497.813	1510.98	6.51556	528.137	522.515	524.439	517.841	506.569	508.769	516.741	508.824	
498.009	1513.81	4.33323	525.903	516.208	511.82	505.512	509.9	515.386	508.255	510.134	
498.205	1521.91	4.9865	528.303	513.983	520.024	518.651	518.102	518.376	504.922	510.4	
498.401	1525.36	3.71535	528.71	515.072	511.505	515.347	511.505	516.445	513.7	513.371	
498.597	1529.53	5.63754	527.263	527.085	509.006	510.649	516.95	522.976	510.102	510.937	
498.793	1541.89	7.59971	529.877	527.653	514.199	517.22	529.3	515.298	512.278	511.481	
498.989	1540.56	4.34577	532.628	512.39	521.147	511.569	511.569	513.485	511.296	514.497	
499.185	1546.47	4.71066	528.755	522.894	516.609	523.44	513.331	515.243	512.784	512.593	
499.381	1558.05	4.56727	532.517	537.103	517.388	523.96	512.186	512.733	517.114	516.224	
499.577	1564.02	4.56391	530.198	538.82	529.528	521.603	522.696	519.143	515.044	515.099	
499.773	1569.14	3.02137	531.043	527.778	520.949	512.753	514.939	516.851	512.48	516.359	
499.969	1572.19	2.92549	530.051	522.314	523.406	530.774	514.673	523.133	513.308	516.747	
500.165	1577.52	4.49954	531.084	529.654	525.841	520.121	520.394	510.861	520.666	517.234	
500.361	1582.04	2.98826	530.131	523.543	506.157	518.925	524.358	519.468	513.763	517.798	
500.557	1582.77	3.4154	529.771	538.432	521.111	519.487	526.253	519.217	523.006	515.874	
500.753	1587.12	2.3676	531.129	529.169	518.629	515.926	512.142	510.521	520.521	515.345	
500.948	1597.75	2.41552	533.224	527.901	523.038	534.386	512.5	512.23	521.687	518.539	
501.144	1603.56	1.457	531.782	534.075	522.203	519.505	518.966	517.886	504.666	519.101	
501.34	1608.29	2.75483	531.184	516.616	522.804	525.763	518.499	517.961	516.347	518.392	
501.536	1612.92	1.69782	530.535	523.967	526.384	512.684	518.057	526.922	509.191	517.116	
501.731	1615.9	3.66067	531.42	522.817	523.889	527.373	506.738	523.353	519.601	519.28	
501.927	1620.22	3.57381	533.373	522.74	518.727	518.995	513.912	514.18	514.982	519.155	
502.123	1625.07	3.05974	531.62	529.458	527.322	518.778	516.642	514.773	516.108	519.953	
502.318	1627.37	1.41106	531.076	519.947	515.687	521.278	533.259	525.804	521.544	520.839	
502.514	1633.39	2.2144	532.766	535.912	532.195	531.664	527.15	517.326	522.371	519.158	
502.709	1642.14	1.94486	529.286	529.99	529.99	527.864	534.772	515.643	519.894	521.209	
502.905	1643.19	1.72466	533.09	524.123	515.659	531.001	521.478	516.717	522.007	522.034	
503.1	1646.73	1.89328	530.242	525.799	523.426	516.306	520.789	529.754	521.316	520.921	
503.296	1655.62	1.94583	532.235	527.859	522.322	519.685	529.441	505.184	522.585	520.727	
503.491	1654.27	0.744384	526.893	534.127	519.973	528.361	530.982	514.469	509.751	517.195	
503.687	1663.59	2.96763	529.035	532.679	527.698	532.155	524.29	524.028	538.971	522.913	
503.882	1662.99	0.700134	527.324	535.357	521.772	519.682	519.421	516.547	519.16	518.52	
504.078	1670.49	0.668426	531.164	532.522	512.939	515.289	518.683	515.028	532.522	522.9	
504.273	1672.2	1.20126	528.726	524.28	532.08	518.04	527.14	525.84	516.739	521.303	
504.468	1679.6	1.25269	530.225	530.511	521.935	524.014	528.172	519.076	530.771	522.546	
504.664	1690.11	2.13472	531.88	525.998	533.788	525.998	524.699	522.102	509.637	522.972	
504.859	1693.21	2.95973	532.007	532.059	533.352	536.974	524.297	520.416	527.402	521.723	
505.054	1692.73	2.02878	528.925	524.55	528.679	536.681	519.387	522.227	521.194	522.601	
505.249	1697.16	2.20617	527.703	511.311	529.053	524.168	516.711	521.854	524.425	521.326	
505.445	1701.54	2.35646	526.738	518.785	526.725	521.603	520.322	528.518	523.908	524.113	
505.64	1708.03	2.99161	524.974	533.13	535.176	521.88	514.465	522.647	519.578	522.557	
505.835	1709.79	0.402726	526.192	526.485	531.328	511.192	528.779	525.721	521.897	520.508	
506.03	1719.64	0.872018	527.489	527.107	529.147	503.394	526.087	529.147	524.047	525.475	
506.225	1723.3	1.53926	527.699	529.261	520.879	519.609	525.451	519.609	526.721	522.365	
506.42	1730.71	0.902909	528.186	517.889	517.382	542.491	526.005	527.273	533.107	525.726	
506.615	1732	0.126344	527.34	527.264	525.495	524.99	531.307	531.56	521.957	521.957	
506.81	1734.56	1.34899	523.795	514.156	521.706	530.263	525.985	516.421	526.488	522.7	
507.005	1738.8	1.28063	523.673	517.332	517.081	523.61	520.848	528.13	517.584	521.35	
507.2	1743.8	0.55062	526.618	525.517	515.005	519.761	521.012	521.763	511.501	522.564	
507.395	1749.06	1.91574	526.232	523.243	535.748	520.742	519.742	526.994	525.494	521.28	
507.59	1750.03	2.2443	522.355	524.147	525.142	518.673	520.414	511.457	521.658	521.671	
507.785	1756.23	0.99422	524.056	523.546	517.084	520.812	523.546	518.078	521.061	521.073	
507.98	1759.95	1.5563	523.196	523.332	518.376	525.81	514.658	515.402	523.084	522.626	
508.175	1764.94	0.900208	521.386	521.473	518.258	524.688	524.688	527.408	527.408	521.213	
508.37	1770.29	2.19032	524.974	520.203	517.978	529.844	520.203	519.955	531.574	523.342	
508.564	1772.39	1.56268	520.655	528.135	514.333	515.319	511.621	515.565	514.826	519.496	
508.759	1780.01	1.97464	520.769	525.891	523.423	522.682	526.138	525.891	520.214	523.435	
508.954	1779.04	1.35469	520.049	527.473	522.32	527.228	519.375	516.675	512.258	519.117	
509.149	1788.81	1.57734	519.492	506.556	520.315	532.353	522.034	522.772	527.44	521.961	
509.343	1788.8	1.25352	518.147	522.052	519.603	514.952	521.072	521.072	517.645	520.534	
509.538	1794.6	1.25762	517.968	521.748	517.588	520.035	521.992	525.663	533.003	520.598	
509.733	1798.42	1.59081	517.517	522.91	521.446	508.27	514.126	528.521	517.054	519.372	
509.927	1802.91	1.23233	517.794	516.613	522.215	519.536	517.587	517.344	523.919	520.729	
510.122	1806.8	0.452069	515.86	522.033	533.699	523.734	527.623	532.727	527.866	520.781	
510.317	1810.53	0.009695	517.478	518.484	523.089	517.514	521.392	509.031	517.757	520.435	
510.511	1817.27	0.348504	514.744	514.247	518.362	514.489	518.846	518.362	528.526	519.197	
510.706	1815.88	2.24654	516.673	507.863	516.299	513.648	522.084	515.817	527.387	518.444	
510.9	1824.9	1.13733	513.994	512.898	515.066	518.922	524.946	520.127	524.946	519.669	
511.095	1825.91	1.4011	512.547	511.863	527.218	516.422	520.98	516.902	527.218	517.417	
511.289	1824.31	0.889017	511.24	511.013	523.918	511.013	512.446	519.616	515.314	515.541	
511.484	1828.04	0.457659	511.095	511.167	509.26	510.452	523.323	509.975	511.644	515.469	
511.678	1832.03	1.20401	510.834	512.393	516.676	522.149	515.962	525.242	519.055	514.546	
511.872	1832.37	1.18172	510.688	513.001	509.916	508.967	512.527	509.679	519.645	513.108	
512.067	1836.11	0.952161	506.239	514.375	517.928	514.612	515.56	516.033	513.902	512.907	
512.261	1844.5	1.63181	510.174	516.993	519.365	510.115	512.486	518.179	519.602	517.467	
512.455	1847.05	0.921613	509.869	507.364	512.8	508.782	513.981	514.217	516.344	514.395	
512.65	1852.38	0.0519196	507.068	504.035	509.699	500.967	513.003	523.623	519.847	515.387	
512.844	1855.53	0.820848	503.966	509.002	510.889	509.237	505.699	513.483	514.191	514.132	
513.038	1855.59	0.94556	505.084	506.966	505.084	515.434	512.611	513.787	513.317	513.093	
513.232	1858.63	1.17831	503.755	506.678	509.964	518.649	502.218	504.331	513.719	512.816	
513.427	1866.77	0.319777	505.56	507.03	510.086	516.905	504.678	518.081	523.959	513.86	
513.621	1866.37	1.54606	503.087	500.826	508.791	508.556	505.745	511.133	521.909	512.34	
513.815	1871.04	0.215337	501.944	502.868	504.273	515.508	517.848	508.252	509.188	510.932	
514.009	1882.3	0.258004	503.678	508.615	512.837	512.602	518.7	506.504	514.948	513.728	
514.203	1878.91	0.420691	500.22	495.265	513.261	503.445	498.537	504.847	513.027	511.649	
514.397	1884.65	1.4596	498.581	497.143	516.09	513.517	509.774	508.371	515.154	508.967	
514.591	1890.5	1.44399	500.094	505.176	498.4	508.214	514.055	502.606	514.522	511.111	
514.785	1897.31	0.191737	498.873	506.998	513.311	505.361	511.207	515.883	513.779	510.389	
514.979	1899.5	1.6295	499.732	502.02	508.09	510.424	505.755	507.389	512.525	509.677	
515.173	1899.05	0.456333	497.359	499.466	498.302	503.89	507.615	502.26	516.229	506.614	
515.367	1906.48	1.16982	497.519	498.369	502.098	511.652	512.351	508.856	502.797	509.52	
515.561	1910.08	0.940496	495.697	503.473	510.224	511.62	505.568	504.869	509.758	506.441	
515.755	1915.53	-0.204963	496.925	499.405	508.023	507.091	517.107	505.694	509.886	509.595	
515.949	1914.95	1.23071	491.89	508.679	504.035	498.694	505.893	502.642	506.357	505.962	
516.142	1918.49	1.68971	491.413	503.065	494.245	512.581	501.672	506.546	506.778	505.745	
516.336	1925.29	0.660615	491.386	500.039	509.809	511.902	494.689	504.924	511.437	505.285	
516.53	1924.15	0.0833281	490.187	494.238	490.071	499.561	509.514	504.654	515.995	507.489	
516.724	1929.03	1.22781	490.449	501.082	499.692	497.608	494.133	501.314	503.862	504.685	
516.917	1932.8	-0.268658	492.108	498.338	504.36	504.823	511.771	499.033	508.992	501.268	
517.111	1940.09	0.347917	487.787	493.922	493.922	514.101	502.04	503.664	496.01	503.409	
517.305	1942.94	1.28143	490.711	489.712	497.605	502.945	494.587	498.534	507.123	505.417	
517.499	1943.52	-0.416686	485.747	497.958	502.588	496.569	502.356	497.726	501.893	503.109	
517.692	1942.21	1.12753	482.534	492.411	494.722	507.661	493.104	508.585	500.96	501.931	
517.886	1956.83	0.0742704	487.012	492.849	501.205	498.884	507.471	507.239	512.345	501.321	
518.079	1956.78	0.565153	485.207	502.324	501.86	508.809	503.482	495.143	499.081	502.3	
518.273	1958.95	2.17697	482.746	489.393	497.962	492.172	495.414	500.973	510.468	499.792	
518.466	1962.46	0.966483	482.021	496.356	495.894	502.136	492.194	494.737	512.772	499.824	
518.66	1964.23	0.887608	479.859	493.519	495.138	486.354	506.233	506.464	499.067	500.119	
518.853	1970.66	1.07428	481.919	487.696	495.799	497.42	494.873	502.05	501.587	498.543	
519.047	1972.33	1.23448	479.464	488.063	496.617	498.929	494.999	497.079	504.246	496.721	
519.24	1979.32	1.75574	478.845	486.257	490.194	489.499	497.143	491.584	501.776	497.444	
519.434	1980.95	0.824927	477.046	487.115	499.859	485.261	486.651	494.066	493.139	496.059	
519.627	1986.53	0.955399	477.231	478.623	487.203	491.377	489.521	493.232	504.363	497.452	
519.82	1984.22	0.444549	476.513	490.578	493.588	493.357	490.578	505.397	502.155	495.337	
520.014	1991.31	1.28074	476.407	483.043	493.948	491.164	498.356	485.827	496.036	493.867	
520.207	1992.89	0.0278268	475.646	485.721	492.446	484.794	484.098	485.49	497.548	492.759	
520.4	1997.4	1.29057	472.72	490.779	488.226	497.975	490.083	500.064	495.653	493.286	
520.594	1999.25	0.60789	475.309	483.013	478.14	482.781	495.542	503.43	499.718	493.825	
520.787	2004.94	-0.00465237	469.758	476.027	481.377	496.963	487.425	501.615	488.123	493.252	
520.98	2004.73	1.12857	469.206	482.036	479.017	479.249	485.287	482.733	493.415	490.663	
521.173	2010.49	0.800911	469.783	475.383	481.203	487.489	486.093	499.131	490.982	491.401	
521.366	2010.5	-0.0279454	469.512	479.817	484.242	488.201	481.68	493.324	483.077	489.062	
521.56	2016.48	0.992512	467.166	474.947	482.636	497.547	484.733	485.431	498.945	490.08	
521.753	2017.99	0.293938	467.907	468.327	474.159	476.725	482.791	488.623	483.724	489.206	
521.946	2018.63	1.31641	464.436	477.577	482.712	491.814	483.178	489.247	486.446	487.006	
522.139	2022.9	1.01852	462.834	467.927	484.98	483.812	482.878	490.82	488.251	485.33	
522.332	2031.47	1.39874	463.214	469.892	470.594	484.862	483.927	478.079	499.364	485.541	
522.525	2031.63	0.809771	462.932	469.883	478.542	484.159	476.904	490.01	487.904	484.873	
522.718	2036.53	0.934512	462.715	469.078	466.73	495.141	483.871	482.931	477.296	484.798	
522.911	2035.32	0.524543	459.72	479.859	481.264	490.63	482.669	478.922	486.65	481.264	
523.104	2043.08	0.892153	459.081	473.883	465.431	476.231	486.796	482.805	491.492	482.676	
523.297	2048.72	-0.127142	460.056	465.2	474.383	485.92	483.565	486.626	483.094	484.695	
523.489	2049.78	0.32437	457.153	479.072	470.61	473.665	479.777	489.179	493.88	482.985	
523.682	2050.96	-0.273016	457.3	469.974	473.034	476.329	475.388	481.742	481.507	480.389	
523.875	2056.16	1.33662	457.38	466.004	469.769	474.476	478.241	483.418	485.065	480.335	
524.068	2053.22	0.456577	454.344	465.393	457.862	472.689	462.334	480.456	480.22	480.326	
524.261	2058.28	0.971648	454.406	458.227	464.594	474.028	477.565	475.443	476.15	479.747	
524.453	2060.93	0.155775	453.143	461.864	467.529	477.677	467.765	477.677	473.665	478.032	
524.646	2069.6	0.862655	450.91	454.121	467.393	465.971	485.167	473.792	490.381	478.105	
524.839	2073.02	-0.356409	449.862	470.141	469.429	468.953	471.805	480.359	478.458	477.84	
525.031	2075.84	0.938685	450.981	460.856	471.816	463.715	473.722	470.386	482.06	476.592	
525.224	2079.1	0.706445	448.333	464.216	476.626	469.944	470.66	474.24	481.877	474.956	
525.417	2077.06	0.911368	447.298	455.875	467.327	479.255	472.575	468.042	484.027	474.591	
525.609	2081.68	0.172431	445.805	447.817	480.147	467.694	467.215	468.652	481.105	475.106	
525.802	2088.47	0.854774	445.683	456.464	461.746	466.308	468.709	472.07	481.675	472.178	
525.995	2086.31	-0.619161	442.808	458.203	462.523	462.043	471.163	471.403	473.082	470.119	
526.187	2091.32	5.24968	442.437	461.102	461.823	453.65	474.562	463.746	472.159	470.26	
526.38	2095.08	0.342321	441.403	447.756	458.363	469.211	464.148	471.622	469.211	470.392	
526.572	2095.97	1.70205	439.649	459.779	458.333	467.012	460.02	469.422	475.932	471.026	
526.765	2101.14	0.425102	441.135	453.984	459.54	456.883	462.438	462.68	471.133	468.428	
526.957	2102.51	0.328751	436.773	456.172	458.347	456.655	465.357	474.06	473.093	468.802	
527.149	2102.62	-0.208038	435.678	451.269	449.576	458.042	455.865	467.477	470.621	467.005	
527.342	2105.98	1.28466	433.821	455.357	447.116	456.811	466.507	468.446	465.052	466.216	
527.534	2109.36	-0.976128	433.292	447.557	448.286	456.056	460.427	472.325	467.711	464.846	
527.726	2113.86	0.876485	435.798	451.867	451.136	466.962	455.762	465.745	477.674	465.598	
527.919	2115.42	0.228726	431.045	444.926	451.74	447.846	455.146	454.416	457.579	460.657	
528.111	2114.18	2.10303	432.046	436.815	454.625	450.478	454.137	459.749	464.14	462.896	
528.303	2119.92	0.161177	429.286	439.335	453.255	453.499	455.941	449.836	463.267	459.226	
528.495	2125.56	0.0294149	429.222	438.757	443.905	447.337	456.651	465.231	464.25	460.586	
528.688	2125.2	-0.412022	427.222	438.185	441.373	442.354	454.617	454.372	461.729	459.571	
528.88	2126.7	1.51274	426.343	440.673	446.812	448.286	455.653	451.232	462.529	457.261	
529.072	2134.99	0.137898	425.788	433.212	440.354	455.375	455.375	468.18	457.591	458.625	
529.264	2139.64	2.02106	425.838	437.907	447.543	454.214	453.473	451.002	456.932	457.29	
529.456	2134.36	0.335345	421.913	434.834	445.436	443.957	454.806	449.628	466.642	454.227	
529.648	2140.17	0.444676	422.2	448.139	439.987	446.41	444.928	448.386	460.491	454.352	
529.84	2138.46	1.11396	419.744	439.127	447.296	446.553	445.811	459.178	458.683	454.735	
530.032	2148.09	0.625134	421.787	434.265	441.955	445.18	440.714	450.141	464.033	453.242	
530.224	2146.31	0.0545776	418.258	439.221	437.98	448.4	451.873	445.175	453.609	450.409	
530.416	2147.69	0.05961	418.172	435.123	438.849	442.823	442.326	440.836	449.777	451.826	
530.608	2152.64	-0.847124	416.294	428.889	437.858	443.589	446.579	453.804	450.316	450.104	
530.8	2158.02	1.35742	413.752	431.044	443.022	447.264	454.001	447.264	451.755	449.497	
530.992	2157.78	0.829914	411.852	428.075	435.825	436.575	443.074	452.073	445.074	446.899	
531.184	2160.74	1.48107	413.291	429.316	426.814	440.073	443.826	450.081	460.088	447.854	
531.376	2156.31	0.560264	410.494	425.201	438.207	445.96	434.205	450.212	457.966	445.072	
531.568	2167.33	1.68737	411.225	428.35	425.337	437.389	447.182	437.389	441.156	445.223	
531.759	2167.7	0.578149	409.636	424.115	438.694	437.94	438.946	443.973	448.498	442.264	
531.951	2174.9	2.53275	407.566	422.273	426.814	440.184	445.986	452.797	446.238	444.977	
532.143	2169.79	1.16181	406.104	412.24	425.568	431.1	443.422	449.709	443.171	441.197	
532.335	2173.56	1.7816	405.367	414.956	428.835	437.163	433.377	446.752	448.771	441.592	
532.526	2181.87	-0.263071	402.916	424.708	418.384	428.502	442.921	438.62	436.597	440.454	
532.718	2180.25	2.366	402.238	427.025	426.265	423.478	435.891	440.451	445.011	440.299	
532.91	2182.67	3.51809	399.23	414.248	422.866	437.82	427.935	437.313	437.06	438.796	
533.101	2189.54	1.01283	403.116	409.821	418.728	429.416	432.47	434.76	443.413	437.305	
533.293	2189.08	1.16635	399.498	424.583	415.415	425.601	436.042	437.57	434.26	437.188	
533.484	2196.82	2.08977	399.47	413.56	423.268	430.421	421.99	440.129	446.516	436.82	
533.676	2195.23	1.09785	397.035	413.924	432.817	428.476	435.115	426.434	436.902	436.595	
533.868	2198.44	1.52793	397.06	411.049	423.058	440.944	422.547	431.745	434.556	434.134	
534.059	2200.85	1.01433	394.455	411.104	419.813	422.375	432.108	434.157	438.768	431.685	
534.251	2209.07	2.2182	394.662	416.344	410.952	424.559	429.694	430.978	436.883	432.685	
534.442	2208.45	2.39408	391.651	403.48	413.242	421.462	435.333	431.993	428.911	430.992	
534.633	2208.37	0.818618	392.525	416.646	419.735	426.428	423.854	425.398	432.349	430.92	
534.825	2223.34	0.569287	394.102	407.558	414.286	422.567	424.895	427.224	434.47	431.015	
535.016	2213.78	0.489535	389.152	402.485	412.018	413.564	416.398	431.857	436.238	430.943	
535.208	2221.26	0.951792	389.047	411.019	409.984	416.45	414.898	427.572	434.814	427.158	
535.399	2220.22	1.11155	387.013	403.855	409.283	416.78	419.882	414.712	431.514	426.034	
535.59	2229.33	0.803821	386.684	398.431	420.989	422.286	424.101	430.065	433.176	428.276	
535.781	2233.81	1.49579	384.988	400.543	418.462	424.694	420.02	419.76	435.601	427.421	
535.973	2227.5	1.69619	384.62	397.795	405.316	405.576	421.915	423.99	432.289	423.873	
536.164	2233.9	2.98762	382.026	396.29	411.591	414.963	424.04	429.486	418.334	422.886	
536.355	2238.75	2.95963	381.502	396.352	401.804	413.746	410.112	410.112	422.314	421.782	
536.546	2239.06	4.62939	382.449	401.842	410.935	421.326	414.832	421.066	419.248	423.469	
536.737	2242	1.30462	379.248	412.526	403.69	408.887	410.187	429.938	421.882	423.324	
536.929	2242.07	3.48425	379.316	398.245	391.485	418.007	424.767	413.586	418.007	419.424	
537.12	2241.6	4.60304	376.511	392.811	401.903	413.593	419.827	414.112	426.321	419.022	
537.311	2247.28	4.46556	376.498	393.588	408.924	409.184	407.364	412.303	428.938	420.283	
537.502	2248.72	3.85265	375.43	394.069	406.564	405.783	413.071	416.716	420.36	417.328	
537.693	2254.23	5.28789	373.612	396.962	397.483	402.959	412.607	411.564	428.773	415.344	
537.884	2252.04	6.48157	369.927	381.255	397.159	402.374	403.938	414.106	406.285	414.497	
538.075	2254.46	6.19693	370.304	384.845	403.608	406.475	420.807	408.299	419.504	413.758	
538.266	2253.73	5.47005	370.576	380.588	399.1	407.443	404.575	414.744	417.872	410.937	
538.457	2259.02	6.31666	370.241	390.238	399.904	395.724	409.047	414.794	416.1	413.148	
538.648	2262.66	8.17468	368.36	378.539	397.094	398.662	408.593	403.366	414.604	411.429	
538.838	2267.56	7.10885	366.132	383.015	397.661	403.154	398.969	407.862	416.754	411.51	
539.029	2266.84	8.18153	364.966	387.038	393.303	397.219	405.051	422.542	412.621	409.097	
539.22	2274.13	9.05739	366.845	392.366	398.384	401	407.017	414.343	407.279	408.234	
539.411	2269.8	10.061	362.715	384.399	394.309	395.352	400.046	406.566	416.476	405.418	
539.602	2277.75	12.2993	364.575	377.848	396.435	400.101	402.719	406.384	407.955	407.549	
539.792	2275.58	12.3184	359.776	376.321	395.878	392.749	405.527	404.744	414.132	405.266	
539.983	2278.93	15.8399	361.313	387.039	387.039	400.874	402.701	406.095	409.749	405.181	
540.174	2289.59	15.6097	358.712	385.535	387.368	394.175	395.746	398.103	394.175	404.818	
540.365	2281.49	16.9259	357.946	372.782	386.626	395.246	397.858	397.858	400.731	402.115	
540.555	2284.49	19.5983	355.8	375.646	377.212	392.869	393.652	395.218	415.834	401.442	
540.746	2285.55	22.4285	357.471	373.094	383.248	388.195	399.912	399.912	405.901	399.834	
540.936	2290.18	26.2063	353.67	374.909	384.296	401.246	403.332	394.727	406.461	399.577	
541.127	2288.79	28.8474	352.745	370.152	387.339	389.943	396.714	400.88	406.609	398.849	
541.317	2292.88	30.0073	351.025	370.274	377.297	386.922	407.991	401.488	400.968	398.9	
541.508	2290.02	34.3168	351.441	371.67	378.413	386.453	381.785	392.418	399.939	396.49	
541.698	2295.12	37.4815	348.918	368.12	377.988	384.22	389.414	389.414	391.751	393.348	
541.889	2297.14	40.577	350.064	367.862	377.729	390.451	395.125	398.76	402.395	395.839	
542.079	2300.67	39.4521	348.085	373.822	373.563	380.049	388.611	393.54	408.848	394.474	
542.27	2300.19	43.0527	345.97	368.165	382.926	393.803	387.329	388.883	401.832	392.845	
542.46	2305.75	43.0373	345.02	365.243	372.747	394.741	385.944	391.378	392.93	393.409	
542.651	2306.95	44.2953	342.583	362.086	380.721	388.227	385.38	387.451	387.451	390.168	
542.841	2314.06	44.7872	342.333	366.694	371.1	387.167	382.762	394.942	397.793	391.223	
543.031	2318.82	45.3532	345.155	369.536	369.277	381.196	382.751	381.196	390.265	390.925	
543.222	2312.72	44.884	338.428	356.493	370.162	377.383	380.993	389.504	389.246	388.318	
543.412	2312.45	44.7038	337.937	354.245	373.31	377.689	383.099	378.72	387.479	386.887	
543.602	2311.26	45.7745	339.844	347.664	365.929	370.816	385.479	381.106	390.882	385.004	
543.792	2313.51	42.5946	337.833	360.428	370.206	379.728	371.236	388.992	397.999	384.99	
543.982	2312.33	44.2197	334.95	354.218	357.549	375.229	369.336	382.403	384.197	384.21	
544.173	2318.72	42.9496	335.595	359.37	368.347	381.684	381.171	392.199	393.225	383.313	
544.363	2321.58	43.7717	335.248	356.515	364.468	376.013	384.992	389.097	386.788	383.453	
544.553	2325.09	44.7014	332.789	359.426	360.195	369.168	374.039	383.782	396.088	383.82	
544.743	2328.14	44.3681	331.168	358.168	365.853	371.488	378.405	377.892	399.667	381.965	
544.933	2331.96	45.2608	330.846	356.929	368.197	367.941	380.233	373.575	390.732	381.027	
545.123	2334.2	45.8217	330.264	343.422	356.733	365.437	379.516	381.052	390.268	378.211	
545.313	2338.02	47.5183	330.225	348.72	357.168	375.856	373.808	371.248	384.304	377.303	
545.503	2340.58	43.372	328.396	357.712	366.905	364.862	376.609	376.354	381.717	377.593	
545.693	2338.32	42.8556	326.256	348.427	355.825	371.388	367.561	373.429	384.909	377.434	
545.883	2342.41	40.6563	325.933	355.556	350.716	376.442	370.074	376.696	371.857	377.448	
546.073	2348.36	39.4533	328.647	346.171	362.726	363.236	372.66	372.914	378.008	374.659	
546.263	2351.69	34.8712	324.81	346.725	351.31	368.628	370.156	377.287	391.04	376.6	
546.453	2348.74	31.7693	322.306	339.145	348.797	367.084	373.18	358.195	374.704	372.418	
546.643	2349.83	26.9373	323.884	346.378	354.742	373.751	369.696	367.415	377.807	372.193	
546.832	2354.44	24.6822	321.537	349.364	355.188	364.05	363.037	369.874	375.444	368.912	
547.022	2359.73	20.3457	319.988	344.112	350.18	354.479	364.847	378.249	377.996	371.813	
547.212	2359.06	16.2745	319.241	342.057	356.191	354.929	361.492	364.016	377.645	370.679	
547.402	2356.82	15.0698	318.301	341.464	346.242	352.781	359.823	366.362	368.374	367.582	
547.591	2367.15	14.5973	319.044	337.121	347.436	362.028	369.072	373.35	379.136	368.821	
547.781	2365	13.3381	316.004	331.792	344.844	353.127	362.414	366.43	369.191	367.936	
547.971	2365.64	14.151	314.388	337.893	341.404	354.191	349.427	366.727	368.482	365.9	
548.16	2373.46	11.2632	312.423	334.877	348.918	352.429	366.721	363.712	372.989	363.261	
548.35	2375.64	13.1396	313.147	331.404	339.914	350.676	355.431	359.936	375.454	364.341	
548.54	2374.63	11.8394	315.003	331.966	343.94	359.158	351.674	367.889	360.155	364.047	
548.729	2377.35	12.3177	312.348	332.682	341.67	351.905	355.151	358.146	371.627	363.589	
548.919	2381.73	12.9826	310.351	323.578	346.494	355.461	361.44	364.927	366.421	361.601	
549.108	2383.15	11.1642	308.726	330.495	343.176	345.414	356.106	358.344	362.819	361.253	
549.298	2386.36	11.7497	308.555	335.981	351.121	344.916	354.596	359.063	367.75	361.893	
549.487	2388.97	11.0842	308.738	326.794	335.717	342.162	352.076	360.007	358.768	360.33	
549.677	2387.88	9.73025	305.976	317.94	338.48	341.202	346.894	361.741	366.691	358.364	
549.866	2397.03	10.2721	307.597	328.376	331.099	344.465	353.623	359.811	367.732	358.772	
550.055	2393.87	9.65834	304.243	331.005	336.19	345.325	343.103	360.385	359.645	357.521	
550.245	2400.62	10.5909	304.076	321.221	336.774	344.674	343.44	361.215	362.696	357.363	
550.434	2406.2	8.94249	304.408	332.038	328.333	338.461	349.577	357.235	358.717	357.173	
550.623	2405.6	9.63236	304.375	323.283	336.832	341.266	338.803	353.584	364.424	354.397	
550.813	2407.13	8.5691	303.986	322.136	336.656	339.117	348.715	357.82	361.758	356.184	
551.002	2409.89	8.43895	301.444	325.504	331.652	339.766	338.536	347.143	364.847	355.626	
551.191	2408.4	9.00058	298.116	328.801	330.518	342.297	344.26	346.223	360.209	352.173	
551.381	2410.37	8.73664	298.669	321.454	335.411	342.756	352.061	346.429	356.958	352.918	
551.57	2417.42	8.38246	297.82	320.16	329.958	341.471	348.82	347.595	361.068	350.045	
551.759	2412.37	8.49984	295.954	310.93	328.262	333.144	341.932	347.058	354.87	350.146	
551.948	2421.52	8.8226	295.625	324.814	323.349	338.737	345.576	344.843	351.438	350.474	
552.137	2423.15	8.15193	297.341	313.92	328.781	340.232	341.207	352.901	352.901	349.831	
552.326	2431.81	8.35373	296.716	323.068	320.145	335.976	344.5	353.755	356.434	349.602	
552.515	2434.43	7.35733	293.841	312.951	328.998	329.728	344.316	341.885	350.394	348.048	
552.704	2428.67	6.69972	291.818	313.759	320.294	334.091	341.836	349.339	351.76	345.939	
552.893	2431.73	5.61123	291.675	315.418	327.501	334.75	338.858	341.758	349.491	345.721	
553.082	2437.08	6.72208	291.592	319.54	320.989	333.062	339.581	343.444	348.273	344.639	
553.271	2431.63	6.54423	290.995	311.671	329.702	340.521	331.866	340.04	350.619	346.844	
553.46	2433.94	6.13429	287.583	312.931	313.411	323.026	332.641	339.612	346.823	343.494	
553.649	2439.12	6.41911	290.039	318.279	321.642	332.453	332.933	344.225	346.387	344.417	
553.838	2434.91	3.07139	288.015	304.747	322.927	329.385	328.428	336.801	338.714	341.274	
554.027	2441.64	3.44729	287.197	316.451	320.282	323.873	343.503	332.97	348.052	341.289	
554.216	2438.55	3.42185	285.773	309.599	316.996	330.836	329.405	336.563	347.54	338.747	
554.405	2437.45	3.86941	284.706	310.749	320.041	329.572	328.142	342.2	345.773	340.615	
554.593	2445.92	2.41764	284.647	304.337	319.329	322.66	327.895	330.513	344.79	339.246	
554.782	2439.85	2.32235	281.45	298.939	315.054	328.087	334.722	339.225	343.254	336.097	
554.971	2440.63	1.64657	281.369	311.154	311.627	326.532	319.671	327.478	343.802	334.149	
555.16	2441.4	2.80351	282.926	302.203	316.386	328.205	323.477	335.06	343.57	336.053	
555.348	2446.66	2.12576	281.392	301.693	310.669	324.132	322.715	321.534	342.555	333.237	
555.537	2449.56	2.79787	279.122	304.906	313.635	324.015	327.318	331.328	343.831	332.484	
555.726	2449.27	2.02132	278.037	299.711	308.663	321.621	325.626	329.159	339.29	331.233	
555.914	2454.68	3.53358	278.444	288.491	312.755	317.937	324.298	327.831	338.197	333.002	
556.103	2455.74	2.47629	279.381	305.38	315.737	314.795	324.446	331.979	331.272	331.908	
556.291	2456.9	1.60479	277.455	292.374	309.786	319.199	322.728	331.199	341.788	333.482	
556.48	2457.49	3.43697	276.606	298.956	313.042	319.615	321.728	333.232	333.936	331.459	
556.668	2466.77	1.73201	276.561	288.563	305.977	321.273	327.862	321.508	334.922	330.839	
556.857	2464.97	2.32104	273.277	295.503	308.632	322.699	324.575	333.249	337	328.642	
557.045	2471.74	0.460461	275.158	300.296	301.705	323.319	320.734	332.246	335.77	330.437	
557.234	2470.21	2.08499	272.802	299.461	297.587	317.5	321.483	330.619	341.161	328.64	
557.422	2475.22	1.36978	274.799	292.191	305.795	315.411	323.386	323.386	332.065	326.799	
557.611	2472.97	1.46023	272.434	293.928	306.799	313.117	318.5	317.33	323.882	327.158	
557.799	2477.9	1.14282	271.492	300.027	307.755	311.502	319.23	322.743	337.965	329.183	
557.987	2475.54	0.210368	269.974	296.843	295.674	316.244	321.853	323.723	334.008	325.698	
558.176	2481.26	2.06161	271.42	292.024	299.738	311.425	315.633	321.009	335.267	326.139	
558.364	2481.99	1.37164	269.459	294.828	298.327	311.39	319.321	320.954	333.084	324.978	
558.552	2484.83	2.16553	267.271	289.113	307.315	312.915	314.315	328.783	331.117	323.533	
558.74	2487.89	1.24513	267.784	289.83	301.256	310.816	313.614	331.335	326.671	322.602	
558.929	2494.11	2.36046	267.674	291.792	304.154	309.286	315.117	325.38	330.278	324.073	
559.117	2491.61	0.959692	266.899	293.978	299.801	310.283	314.476	319.834	320.998	322.151	
559.305	2495.74	3.12036	266.726	287.986	298.698	310.108	312.67	314.3	332.463	321.786	
559.493	2498.99	1.5551	265.186	291.073	305.972	312.258	314.353	330.183	324.363	322.036	
559.681	2498.84	1.98731	265.78	285.363	297.696	307.47	313.055	309.564	327.715	319.908	
559.869	2506.35	1.25654	263.947	288.054	295.733	312.254	316.675	320.631	318.304	319.118	
560.057	2508.75	1.61096	264.802	286.894	297.603	297.836	315.528	325.771	320.65	320.72	
560.245	2511.46	0.581392	264.02	287.171	296.473	308.101	310.426	324.845	326.473	319.043	
560.433	2511.45	0.934139	262.091	283.528	295.146	306.765	313.736	321.172	323.728	318.535	
560.621	2512.5	0.938722	263.535	281.682	295.623	305.847	310.726	319.556	326.759	320.09	
560.809	2516.44	1.79482	261.979	290.761	286.576	303.083	309.36	320.753	316.103	317.695	
560.997	2515.7	0.864524	260.022	287.166	298.554	293.906	314.589	318.54	324.35	316.472	
561.185	2520.55	0.67452	260.388	276.669	296.905	301.557	312.256	319.466	325.281	316.908	
561.373	2521.43	0.878695	258.864	286.654	290.839	307.808	322.918	315.479	323.848	315.758	
561.561	2525.83	2.54693	260.337	281.798	300.156	304.339	316.191	314.797	320.141	314.402	
561.749	2530.06	0.990944	258.653	282.019	291.091	299.465	300.861	307.607	321.796	315.109	
561.937	2530.65	1.51119	258.431	281.355	296.467	302.976	315.066	317.856	318.786	313.88	
562.124	2527.96	0.464212	256.108	281.303	294.533	299.407	304.514	308.46	318.672	313.508	
562.312	2532.84	1.81016	258.479	279.757	291.623	300.464	306.979	315.355	313.494	312.772	
562.5	2536.2	1.84269	256.364	279.642	288.949	298.953	309.423	305.003	320.126	311.447	
562.688	2536.58	1.25967	256.971	284.709	286.104	293.773	303.535	306.788	323.755	313.819	
562.875	2538.08	0.214061	255.105	277.465	286.539	298.406	306.549	307.247	323.069	311.319	
563.063	2540.24	1.22002	254.872	277.456	287.701	303.068	302.835	306.094	307.026	310.32	
563.251	2547.17	0.270077	254.175	277.853	286.934	298.808	298.575	309.285	316.735	309.692	
563.438	2541.52	2.77333	254.067	274.681	286.547	299.808	300.041	303.996	310.976	308.824	
563.626	2545.81	2.51812	253.306	276.323	284.468	293.079	298.897	304.948	314.025	307.508	
563.813	2551.88	1.18977	252.329	273.605	284.803	303.932	300.433	308.831	314.664	309.275	
564.001	2552.19	0.424275	250.553	278.259	281.056	292.013	298.773	302.037	312.76	307.294	
564.188	2553.04	0.834835	251.462	273.196	290.452	294.417	297.915	310.041	313.539	306.368	
564.376	2558.46	2.32439	252.517	277.14	286.494	292.34	299.121	311.749	318.296	307.481	
564.563	2561.57	1.79083	251.02	275.288	283.003	291.653	304.278	306.849	316.201	307.387	
564.751	2560.83	1.04726	248.164	263.569	283.906	301.439	300.036	314.529	313.127	306.231	
564.938	2564.57	0.868799	250.104	262.751	284.237	291.944	299.651	307.358	314.365	305.654	
565.126	2566.68	1.10334	249.437	271.516	284.373	293.489	304.476	302.138	310.086	304.581	
565.313	2568.21	1.9287	249.18	275.734	287.438	294.928	303.354	306.163	309.206	305.028	
565.5	2564.75	1.66325	247.263	262.143	288.307	280.598	291.811	303.491	303.491	302.697	
565.688	2574.6	1.01277	247.535	259.339	275.281	296.614	292.16	306.461	312.322	305.816	
565.875	2569.43	1.65304	247.129	264.748	284.884	290.972	296.825	316.025	304.786	302.609	
566.062	2578.25	1.30639	247.229	269.257	277.246	292.518	291.343	298.157	315.31	302.998	
566.249	2577.32	0.939292	246.67	267.393	284.065	287.118	289.231	301.912	309.426	301.56	
566.437	2577.8	0.935694	246.135	266.612	280.012	285.655	289.886	295.294	306.814	300.983	
566.624	2574.45	-0.103396	245.143	263.73	276.655	280.18	289.109	297.334	299.449	299.05	
566.811	2583.88	0.636595	242.937	268.719	279.093	288.76	298.426	299.605	309.744	301.881	
566.998	2580.95	-0.329664	243.605	266.599	270.837	291.324	296.269	295.798	303.804	298.977	
567.185	2585.95	0.424937	243.364	272.153	281.36	290.567	299.066	303.787	311.342	301.025	
567.372	2586.18	1.87509	242.848	271.057	267.279	289.478	291.603	299.869	303.883	299.491	
567.559	2590.48	0.803304	243.198	263.871	277.338	289.624	286.317	300.02	304.982	301.201	
567.746	2594.43	0.667737	241.737	271.229	275.965	288.277	291.119	293.96	304.852	298.305	
567.933	2589.03	1.46201	241.527	264.368	271.938	284.24	285.186	298.198	301.037	298.458	
568.12	2592.64	0.962037	241.521	262.48	267.93	285.227	293.995	296.838	303.71	296.874	
568.307	2594.13	1.61817	242.164	266.187	276.39	285.169	283.033	298.456	309.845	298.61	
568.494	2596.15	1.30266	242.111	264.492	275.664	279.705	289.689	288.5	302.763	296.844	
568.681	2600.74	2.03763	241.081	265.635	280.631	284.202	298.246	299.437	308.006	296.889	
568.868	2596.32	-0.190551	239.478	262.761	272.288	281.816	297.06	293.487	297.06	297.667	
569.055	2608.61	1.81744	239.508	262.596	279.575	280.532	300.619	299.902	300.141	296.877	
569.242	2606.55	1.18068	239.483	267.494	278.967	276.099	282.313	296.175	298.087	295.446	
569.429	2609.39	1.04866	237.92	256.882	262.149	279.388	285.852	291.837	297.823	294.746	
569.615	2609.88	0.0864007	237.46	262.697	274.697	281.417	283.097	294.617	299.177	294.857	
569.802	2613.58	2.13653	236.437	255.917	274.402	283.524	279.203	286.885	301.048	292.562	
569.989	2615.03	1.44398	235.01	259.04	272.517	282.866	287.438	292.974	295.621	293.587	
570.176	2616.79	1.86383	237.992	257.449	259.857	280.326	292.848	286.587	300.794	294.244	
570.362	2621.54	0.705577	237.622	263.272	271.004	273.662	289.61	290.094	301.209	293.851	
570.549	2621.22	1.20891	236.113	261.658	268.911	279.308	281	287.77	290.672	291.917	
570.736	2626.07	0.193796	235.435	259.527	260.496	277.695	280.602	291.745	298.77	293.005	
570.922	2623.99	1.60123	237.258	252.421	276.682	290.026	277.167	287.6	295.606	291.081	
571.109	2631.06	1.38565	235.438	261.182	266.044	289.138	283.79	288.166	303.724	290.609	
571.295	2629.57	0.447126	233.783	256.529	269.408	273.539	286.661	283.502	298.325	291.339	
571.482	2630.28	1.59615	232.554	262.859	264.319	272.592	278.918	290.354	300.086	290.403	
571.668	2636.94	1.76251	233.213	247.225	259.431	267.975	279.448	285.307	294.583	290.067	
571.855	2644.2	1.08669	235.561	256.524	277.817	274.635	283.691	277.083	298.865	291.486	
572.041	2643.51	1.12242	234.101	257.701	267.259	277.061	283.433	285.884	294.706	289.425	
572.228	2641.72	-0.0294348	232.687	259.227	270.265	273.209	286.945	292.096	296.021	289.214	
572.414	2648.02	0.692682	231.896	253.143	266.653	275.742	277.952	288.023	300.55	289.669	
572.601	2648.41	-5.96046e-10	232.107	252.935	264.739	277.28	284.411	291.296	295.723	289.452	
572.787	2646.46	0.664999	231.942	256.916	267.261	274.65	288.196	281.792	302.727	289.255	
572.973	2651.97	1.69214	230.318	257.895	263.322	278.122	273.929	283.549	298.349	287.668	
573.16	2654.39	1.12763	231.537	252.965	267.307	275.962	283.134	287.832	297.724	287.956	
573.346	2656.17	0.623713	229.281	255.356	260.553	270.206	276.641	292.234	289.264	288.126	
573.532	2661.02	1.37685	231.636	249.99	259.434	272.606	278.571	283.79	291.495	286.039	
573.718	2660.94	0.392767	230.552	248.14	260.072	268.524	277.721	290.151	289.654	285.8	
573.905	2651.21	0.586335	228.83	252.854	258.072	263.538	276.457	276.705	289.376	285.811	
574.091	2660.04	1.53599	229.64	255.448	263.926	264.175	279.386	281.879	289.36	284.522	
574.277	2668.02	4.48384	228.613	254.172	261.429	274.44	273.189	281.195	281.946	284.186	
574.463	2668.34	1.58885	228.195	251.439	262.967	266.475	277.753	284.519	289.531	284.983	
574.649	2666.48	2.02275	228.375	248	266.32	273.347	273.347	277.362	292.922	283.711	
574.835	2668.59	0.372158	226.828	256.009	259.278	271.851	272.103	278.138	290.459	283.707	
575.021	2666.82	1.40941	227.371	252.174	262.493	273.064	277.846	284.641	294.205	284.201	
575.207	2671.48	2.48648	226.212	252.552	259.613	264.405	274.24	285.588	294.918	282.915	
575.393	2671.09	3.31021	225.789	243.313	255.948	267.824	271.109	283.743	288.039	282.328	
575.579	2673.92	2.31495	228.501	250.764	264.948	266.214	270.52	287.49	286.223	282.07	
575.765	2677.67	3.4188	226.86	240.881	257.39	261.2	276.694	281.52	284.822	281.596	
575.951	2684.55	1.83794	225.077	246.877	260.151	270.617	280.572	281.338	293.591	283.1	
576.137	2687.78	4.21628	226	246.813	257.801	277.222	275.688	281.055	285.91	280.582	
576.323	2687.44	4.25547	224.869	239.54	266.681	269.754	275.387	276.923	284.092	281.839	
576.509	2691.03	3.22347	226.888	245.251	267.322	266.039	276.562	281.438	294.784	280.771	
576.695	2692.84	4.77883	224.999	247.491	259.837	265.238	273.469	287.872	292.502	281.403	
576.88	2700.42	4.60606	225.583	243.444	257.919	268.258	280.148	275.495	294.622	282.409	
577.066	2702.71	4.82176	224.419	244.311	268.627	269.403	274.835	277.939	284.923	278.806	
577.252	2705	4.49808	225.008	247.576	253.011	265.433	277.597	278.633	289.244	280.315	
577.438	2703.9	3.16744	224.929	243.436	250.435	257.952	264.172	274.541	287.241	279.154	
577.623	2714.53	3.86853	225.021	247.617	262.456	272.349	273.911	283.543	285.886	280.094	
577.809	2713.24	3.83104	224.275	248.486	255.523	269.075	264.905	285.754	285.493	278.392	
577.995	2720.9	4.61751	225.411	248.211	255.27	268.605	276.711	280.371	289.261	280.567	
578.18	2716.31	4.13098	221.376	246.914	255.008	266.498	276.421	272.504	282.165	278.353	
578.366	2723.41	6.2214	222.18	240.957	249.605	266.378	271.095	281.053	287.605	278.852	
578.552	2723.46	4.66846	223.603	250.254	253.404	269.684	270.471	270.471	282.024	276.812	
578.737	2727.15	5.962	225.785	244.979	256.293	268.395	272.605	277.604	294.443	279.656	
578.923	2725.11	6.06591	222.931	243.221	251.917	264.565	267.2	280.639	281.43	278.281	
579.108	2730.78	6.4977	224.472	241.985	257.582	277.144	270.27	274.236	284.545	280.065	
579.294	2722.99	6.26476	222.293	241.474	253.114	263.167	264.49	284.332	278.512	276.739	
579.479	2728.59	7.16296	223.813	237.582	251.112	268.622	271.009	280.295	280.295	278.199	
579.665	2731.25	5.90571	221.589	240.334	253.647	266.961	272.286	278.942	278.41	277.238	
579.85	2733.98	5.04769	223.163	248.281	261.087	264.288	263.755	270.158	280.83	274.12	
580.035	2734.78	6.01214	221.433	244.888	255.318	260.132	264.946	272.167	280.725	273.384	
580.221	2740.76	6.46011	223.064	238.235	257.015	261.307	276.062	277.672	273.111	275.378	
580.406	2738.06	5.6369	220.526	240.9	254.589	269.621	259.958	275.527	283.579	273.54	
580.591	2743.13	5.06241	220.468	241.193	252.222	259.485	272.127	270.782	273.472	275.503	
580.777	2746.03	4.48568	219.442	238.232	244.971	260.876	264.38	268.154	274.354	273.653	
580.962	2748.99	5.42819	221.874	242.014	257.423	258.504	277.156	271.48	270.398	274.372	
581.147	2755.62	6.33909	220.702	241.769	248.276	263.46	268.883	272.407	274.848	274.17	
581.332	2756.23	6.5854	218.876	244.691	247.134	255.278	259.621	272.108	270.479	273.465	
581.517	2759.64	6.18191	218.769	244.278	258.699	255.706	261.964	277.201	281.01	273.609	
581.703	2756.14	4.66642	220.314	233.952	254.075	254.619	266.04	263.321	285.348	273.967	
581.888	2765.16	5.94757	220.219	234.774	254.708	256.893	258.258	275.735	283.108	272.977	
582.073	2770.24	6.38879	220.317	244.652	258.338	267.097	268.192	278.046	284.342	275.2	
582.258	2774.57	7.06749	220.725	237.694	255.527	258.545	269.794	272.263	275.006	273.333	
582.443	2781.69	7.98956	219.468	257.363	249.098	261.22	274.72	273.067	283.811	275.174	
582.628	2772.59	8.63946	220.876	240.782	254.539	256.19	257.841	274.9	285.906	272.162	
582.813	2777	8.09845	217.886	248.869	244.734	263.478	270.92	267.613	288.01	272.106	
582.998	2786.88	7.98518	218.846	250.09	245.113	253.684	259.491	273.868	278.569	271.131	
583.183	2784.39	8.71592	220.347	241.556	244.876	262.031	260.094	270.055	269.779	270.581	
583.368	2796.93	7.56085	218.458	237.374	252.396	259.072	263.801	272.702	274.65	272.508	
583.553	2791.45	6.77354	219.954	238.876	262.789	265.013	271.965	270.575	273.633	274.606	
583.738	2796.32	8.79706	217.114	246.535	261.002	265.453	270.739	270.739	276.025	270.725	
583.923	2798.79	10.5225	217.09	237.252	251.464	257.873	263.725	265.397	284.625	274.663	
584.107	2804.62	8.46907	217.698	242.157	254.743	245.793	260.897	270.127	279.636	272.224	
584.292	2807.61	7.09125	218.028	243.388	247.869	262.992	264.953	273.635	278.956	272.542	
584.477	2809.26	7.85742	219.103	239.601	252.211	258.376	270.986	273.228	279.673	270.846	
584.662	2813.17	9.61815	217.203	238.146	251.622	254.148	272.396	271.554	273.239	271.035	
584.846	2817.46	8.04864	216.069	243.93	250.403	249.84	262.222	265.318	275.449	271.045	
585.031	2821.4	6.95537	217.337	236.415	251.903	258.098	262.322	275.557	276.12	270.572	
585.216	2822.64	6.69507	218.012	239.23	244.866	266.281	255.855	273.889	275.298	271.522	
585.4	2832.21	7.92691	218.601	240.171	252.609	256.285	261.939	272.116	278.901	271.084	
585.585	2825.07	8.06682	217.142	250.009	251.424	255.101	266.697	266.98	266.697	269.922	
585.77	2834.95	9.49953	217.882	239.065	247.855	261.75	260.049	265.72	279.331	270.427	
585.954	2831.15	9.74764	216.201	232.839	252.946	250.397	265.123	273.053	271.354	269.187	
586.139	2837.01	8.45317	217.551	235.321	245.823	258.313	264.274	267.68	279.318	269.014	
586.323	2839.88	8.59551	215.994	238.763	247.865	258.389	265.784	274.032	273.463	271.458	
586.508	2847.04	8.80122	217.464	241.945	251.06	255.332	268.434	278.118	277.264	272.009	
586.692	2849.85	10.5051	217.342	235.206	243.761	251.175	272.276	277.124	274.273	269.211	
586.877	2849.1	8.71352	216.199	242.58	251.43	256.855	263.992	265.134	273.985	268.489	
587.061	2852.27	10.4182	216.54	238.593	238.307	241.741	258.055	263.78	269.504	270.992	
587.246	2851.2	10.5706	217.217	231.517	246.961	248.677	263.263	258.401	272.987	269.984	
587.43	2857.89	10.7773	215.18	225.277	245.298	255.309	257.883	271.04	266.178	267.465	
587.614	2860.79	9.89281	216.659	236.992	249.601	257.339	261.924	265.077	269.949	269.232	
587.799	2871.83	9.06302	215.519	228.077	242.175	261.165	261.452	272.098	269.796	269.695	
587.983	2873.2	8.98353	215.714	235.297	248.813	256.865	264.629	266.929	278.144	269	
588.167	2875.09	7.95322	215.096	235.066	245.992	269.282	263.244	271.007	265.257	268.003	
588.351	2880.12	7.72674	214.47	236.193	246.564	256.359	265.002	267.019	278.255	268.359	
588.536	2878.89	8.77388	215.182	239.894	250.545	256.59	261.771	263.786	269.831	268.435	
588.72	2878.05	5.78889	215.288	232.954	241.585	261.726	266.904	271.508	265.178	269.307	
588.904	2885.2	6.9754	215	235.669	244.901	260.478	265.382	269.133	266.825	269.551	
589.088	2883.99	5.37162	218.017	234.444	251.158	254.616	255.192	269.601	264.414	267.252	
589.272	2900.69	5.13449	214.95	240.478	246.253	255.206	267.623	269.645	270.8	267.363	
589.456	2892.39	7.14841	216.006	236.908	245.569	250.766	257.118	266.645	272.997	269.85	
589.641	2896.85	5.52814	214.674	235.563	245.662	256.337	260.088	262.685	273.937	266.839	
589.825	2901.37	4.0263	215.572	231.429	246.159	260.023	266.377	264.355	277.353	266.392	
590.009	2902.9	4.66287	212.651	235.764	249.325	246.728	252.499	266.926	271.543	264.921	
590.193	2905.94	6.93523	215.492	231.198	246.513	259.227	266.741	266.452	279.455	267.723	
590.377	2911.52	5.16746	213.864	242.212	243.367	249.718	253.471	265.885	274.257	266.303	
590.561	2914.16	6.65848	212.959	233.532	240.462	250.857	257.498	269.914	277.999	265.742	
590.745	2924.32	4.09374	214.93	237.657	242.868	250.106	263.134	267.477	273.557	265.436	
590.928	2919.73	6.26648	212.359	228.978	241.107	264.209	259.3	262.187	269.984	267.385	
591.112	2928.68	5.80816	213.571	234.455	243.133	252.389	260.777	268.008	269.744	266.707	
591.296	2925.81	4.82695	215.788	236.873	249.013	252.481	265.199	273.581	273.581	265.56	
591.48	2931.13	4.97464	211.523	230.048	241.328	255.789	260.127	270.828	261.863	267.271	
591.664	2939.6	5.24936	214.529	230.752	243.788	254.218	260.301	265.226	278.842	267.529	
591.848	2940.78	5.03953	214.562	236.284	247.869	254.531	257.717	264.089	266.406	265.406	
592.031	2944.07	5.52959	212.084	231.327	236.254	247.267	249.585	266.104	271.321	265.293	
592.215	2939.07	5.79078	213.083	237.839	246.815	254.922	255.501	270.267	273.742	264.781	
592.399	2950.78	6.67191	213.046	230.392	244.015	254.159	251.55	264.013	276.476	265.94	
592.582	2952.3	5.14155	211.76	235.555	244.25	255.263	263.958	259.9	275.841	265.813	
592.766	2951.95	6.19109	212.405	237.96	253.887	247.516	255.914	256.493	270.393	264.992	
592.95	2949.99	6.32679	212.253	236.412	242.184	252.864	252.287	265.852	266.43	262.302	
593.133	2962.91	7.28499	211.354	230.564	242.417	253.98	262.942	258.317	275.373	265.789	
593.317	2966.91	4.46457	214.623	233.91	238.536	248.946	271.211	265.717	263.404	262.999	
593.5	2968.84	4.74201	213.518	234.138	245.112	265.039	257.53	263.017	262.44	263.551	
593.684	2968.69	3.04423	213.364	230.911	232.355	249.684	258.06	266.436	271.635	263.476	
593.867	2978.49	4.37831	213.001	228.972	241.968	250.632	256.697	264.495	272.871	265.347	
594.051	2972	3.60401	212.593	234.751	245.419	252.627	259.835	272.233	265.89	264.679	
594.234	2982.17	3.07228	212.452	223.699	245.644	255.172	257.194	267.011	263.835	263.835	
594.418	2985.92	1.70197	211.728	229.339	248.667	250.109	248.378	270.879	268.571	264.533	
594.601	2992.01	3.22309	212.114	238.843	237.399	246.064	259.926	258.193	265.414	262.757	
594.785	2990.4	3.07319	211.528	235.068	248.329	246.023	248.041	267.356	274.564	263.969	
594.968	2997.09	3.13451	211.519	235.504	240.988	247.626	264.944	258.883	278.798	265.132	
595.151	3000.11	1.92701	210.512	229.061	249.542	247.523	256.466	261.081	269.736	264.082	
595.334	3005.67	2.48937	212.334	232.185	244.574	250.049	258.98	263.879	270.217	265.132	
595.518	3009.81	1.80366	210.679	232.389	241.609	243.914	255.439	277.049	263.795	263.838	
595.701	3004.54	1.71723	212.629	221.287	243.111	251.152	258.044	268.382	266.659	263.127	
595.884	3012.65	0.960424	210.73	238.651	240.089	250.153	254.179	259.93	266.543	261.54	
596.067	3014.04	1.39644	211.414	227.677	234.286	255.548	254.112	265.605	272.214	264.211	
596.251	3010.16	2.29276	213.877	245.417	250.576	246.85	248.283	266.338	264.046	265.364	
596.434	3022.81	3.07084	210.028	229.658	241.999	249.174	257.784	257.21	271.559	264.169	
596.617	3027.82	2.26759	210.229	231.599	236.765	249.108	254.849	265.469	266.904	262.197	
596.8	3034.3	3.14753	214.583	232.762	237.357	251.716	261.193	262.342	264.352	263.074	
596.983	3038.44	1.99831	209.618	233.004	237.885	249.656	257.121	263.151	267.744	263.825	
597.166	3034.24	5.12809	211.371	234.45	243.894	264.211	253.051	264.211	269.076	265.642	
597.349	3039.9	1.63936	209.958	228.616	237.214	250.684	252.117	265.014	269.313	261.002	
597.532	3037.41	2.74258	210.873	231.713	241.141	247.997	250.854	260.568	268.852	263.11	
597.715	3053.29	2.55432	208.968	231.991	240.009	253.468	251.463	259.481	263.777	261.572	
597.898	3045.56	3.59456	209.576	228.577	243.15	243.436	246.293	268.295	260.008	263.266	
598.081	3047.98	4.39373	208.482	227.165	232.593	256.019	250.305	267.732	273.16	260.318	
598.264	3047.23	3.87773	208.687	235.418	234.848	256.517	254.521	259.369	271.059	262.334	
598.447	3062.72	3.48165	209.397	227.862	236.724	253.303	255.018	263.594	260.163	261.707	
598.63	3059.08	4.56079	209.028	233.131	242.835	252.824	256.534	263.099	265.667	261.714	
598.812	3069.43	2.99614	209.012	232.87	238.873	252.596	245.449	261.173	271.751	262.445	
598.995	3069.73	4.95789	210.285	221.753	240.295	250.85	251.42	259.693	272.53	262.988	
599.178	3063.73	3.53249	207.984	227.042	233.594	242.141	250.402	261.797	255.815	260.857	
599.361	3067.59	3.27817	209.06	232.294	236.563	245.954	261.889	261.32	269.003	259.797	
599.543	3073.01	3.50919	209.706	224.161	241.536	247.803	256.917	262.614	268.026	260.99	
599.726	3077.82	3.46792	209.301	223.783	240.839	250.219	255.052	264.432	267.843	262.257	
599.909	3078.59	3.20881	205.916	228.19	231.603	235.586	246.111	255.214	268.869	259.154	
600.091	3081.88	4.58056	208.822	225.516	238.019	249.953	257.91	268.139	260.751	260.112	
600.274	3077.81	3.3477	206.274	229.031	236.395	245.175	251.123	268.399	268.966	260.186	
600.457	3085.08	2.52957	209.742	227.735	236.242	252.407	249.004	260.914	277.362	260.134	
600.639	3089.52	2.90734	206.803	233.001	239.518	241.785	245.185	257.087	267.004	259.495	
600.822	3095.82	3.74769	209.086	224.895	234.519	249.238	259.994	262.825	271.883	259.895	
601.004	3099.27	2.60071	208.692	235.01	234.16	250.309	249.742	261.924	261.074	258.68	
601.187	3105.93	0.600193	208.307	222.462	238.883	251.623	255.586	261.531	268.043	261.333	
601.369	3103.51	2.56959	206.372	225.022	239.423	247.047	260.036	260.319	262.578	258.088	
601.552	3109.51	1.77463	207.001	229.283	239.739	245.955	255.563	258.107	272.236	259.195	
601.734	3111.5	2.75698	206.765	233.812	238.049	240.309	251.043	254.715	269.121	259.207	
601.917	3112.65	1.55759	206.423	228.221	229.067	248.255	244.305	258.131	262.646	257.397	
602.099	3115.05	2.26619	205.457	226.71	239.957	244.467	242.494	254.614	264.48	256.404	
602.281	3121.9	1.93614	206.086	224.699	235.142	248.407	251.512	261.39	263.366	259.499	
602.464	3117.59	1.87387	205.735	229.665	234.166	248.516	241.763	256.957	262.865	258.997	
602.646	3129.13	1.33628	207.459	227.236	238.794	251.762	252.89	259.092	262.475	261.263	
602.828	3131.81	0.400167	206.96	223.248	230.293	247.766	249.456	255.656	262.701	258.122	
603.01	3130.03	1.64823	206.338	221.836	242.087	249.4	254.744	260.651	270.777	258.302	
603.193	3128.78	0.972381	205.043	233.062	243.742	247.114	248.8	263.695	259.48	258.145	
603.375	3137.34	2.98946	204.252	222.248	238.825	248.659	243.32	254.278	263.55	257.355	
603.557	3141.49	0.927891	205.761	225.444	238.659	250.469	250.469	258.623	261.153	258.665	
603.739	3139.55	2.86399	205.061	225.109	244.483	243.36	247.572	252.626	264.419	256.74	
603.921	3144.97	0.87079	204.95	227.928	238.04	247.31	252.366	249.276	263.602	258.757	
604.103	3152.54	1.77255	204.254	229.998	233.374	245.473	257.008	265.168	266.856	259.583	
604.285	3152.5	2.62786	206.481	228.849	238.133	242.072	250.794	256.984	260.923	257.603	
604.467	3160.13	2.29938	206.496	216.26	234.858	240.212	254.302	260.783	263.882	258.571	
604.65	3154.29	1.35075	204.118	226.222	236.353	249.016	243.388	255.77	258.303	255.46	
604.832	3160.33	1.78779	204.055	226.656	236.213	246.052	244.365	260.388	264.885	256.677	
605.013	3158.37	2.39819	205.231	227.542	236.528	237.09	246.919	262.083	257.028	255.835	
605.195	3167.8	2.37916	205.007	225.931	239.429	251.522	245.898	252.928	259.396	257.653	
605.377	3165.51	1.39881	205.648	232.388	234.635	249.241	241.377	258.23	261.319	258.553	
605.559	3167.88	1.36323	203.189	218.673	235.784	246.723	247.284	263.553	262.712	257.312	
605.741	3175.1	1.95309	204.151	227.793	238.176	253.89	251.084	257.538	260.344	256.36	
605.923	3172.39	3.53288	205.649	218.064	228.982	253.057	250.818	259.776	265.655	255.773	
606.105	3178.65	2.96421	203.292	225.678	231.561	247.531	260.979	249.772	265.462	257.869	
606.287	3179.39	4.02676	204.067	219.503	231.527	248.306	250.263	262.847	267.041	256.261	
606.468	3186.54	2.86936	203.154	225.723	237.189	244.181	245.3	260.681	257.325	255.689	
606.65	3184.13	3.50864	203.093	217.256	238.207	235.135	251.895	242.956	262.231	254.479	
606.832	3184.67	2.52968	204.371	228.844	232.474	247.272	252.856	256.207	264.304	256.053	
607.013	3189.53	3.87956	204.093	228.536	232.729	249.22	241.114	257.605	274.375	257.745	
607.195	3190.78	3.07222	201.546	222.647	226.836	244.99	253.648	255.045	260.072	256.469	
607.377	3187.4	4.7722	203.176	223.506	236.065	241.088	255.6	256.437	261.461	255.168	
607.558	3194.56	3.34195	203.557	227.923	236.585	242.733	246.645	256.145	268.16	256.145	
607.74	3194.62	4.25085	201.941	222.776	233.389	250.426	250.147	251.823	267.184	255.467	
607.922	3189.96	3.20251	201.515	225.576	228.644	246.219	244.824	253.751	266.026	255.244	
608.103	3190.7	5.23158	202.14	226.752	232.602	231.209	252.938	242.631	261.852	254.484	
608.285	3198.95	5.35091	202.122	227.76	229.436	241.444	244.796	251.219	264.904	255.185	
608.466	3197.38	7.8777	203.231	225.114	235.428	247.136	247.693	253.826	259.68	255.094	
608.648	3201.48	7.44887	199.892	217.496	232.282	242.883	245.673	253.485	268.55	253.331	
608.829	3198.82	11.4189	201.589	226.361	238.343	238.9	246.423	257.012	250.882	254.546	
609.01	3204.68	12.2741	200.132	217.28	222.578	234.568	250.74	248.788	249.624	253.124	
609.192	3205.55	13.7087	201.833	215.134	231.587	243.578	249.713	245.53	265.329	253.7	
609.373	3209.52	17.5845	200.782	216.868	229.982	243.097	248.956	255.653	260.396	254.244	
609.555	3209.08	21.3474	202.062	224.315	228.495	236.299	246.889	254.135	254.413	252.783	
609.736	3212.8	27.2192	201.258	225.119	239.927	244.118	242.442	260.603	268.147	254.777	
609.917	3215.13	31.6542	203.325	218.521	239.489	244.522	247.317	247.317	266.329	254.083	
610.099	3218.35	38.367	199.183	222.589	231.532	241.314	244.947	254.17	256.965	253.486	
610.28	3214.51	44.5259	199.556	218.621	229.803	245.737	256.36	253.005	261.671	253.62	
610.461	3219.46	49.1156	201.801	225.923	228.72	239.067	245.78	249.415	257.526	253.191	
610.642	3218.24	50.1378	201.248	220.018	222.818	247.173	246.893	256.971	265.089	253.01	
610.823	3216.16	50.4614	202.42	222.21	237.057	244.06	247.702	243.78	256.665	251.203	
611.004	3225.01	52.4187	199.944	215.536	232.642	246.945	253.395	252.553	260.125	251.067	
611.186	3224.2	51.438	199.566	213.971	233.328	238.939	244.83	250.721	257.734	252.544	
611.367	3229.99	48.7309	199.693	213.896	223.15	242.499	240.256	253.155	264.932	253.59	
611.548	3232.5	43.3065	199.844	227.508	242.12	237.624	249.144	259.26	260.946	251.673	
611.729	3232.01	39.392	200.973	224.493	228.146	243.321	242.759	250.908	257.652	252.931	
611.91	3233.76	33.7787	201.371	224.345	224.626	244.859	244.297	252.166	261.439	251.463	
612.091	3233.75	30.2931	199.439	227.8	231.175	243.83	243.267	245.236	257.047	252.435	
612.272	3237.69	24.3685	198.576	228.502	234.129	239.194	247.073	251.294	260.017	253.728	
612.453	3231.83	23.9902	199.488	214.597	227.236	234.257	241.559	245.21	262.342	252.863	
612.634	3235.92	21.6862	198.819	219.71	230.963	237.997	243.343	254.034	256.566	249.814	
612.815	3235.45	18.743	197.437	217.956	230.324	235.384	243.536	244.941	260.12	252.081	
612.995	3233.52	18.6395	199.659	218.467	226.902	237.585	240.959	252.204	258.389	251.839	
613.176	3233.28	16.8395	199.029	218.897	226.771	236.614	249.269	251.518	258.83	251.097	
613.357	3222.9	17.1943	198.187	218.17	229.411	248.241	240.934	249.647	259.483	250.757	
613.538	3231.26	17.3457	195.697	216.29	223.604	234.575	248.078	251.735	257.361	251.341	
613.719	3231.91	15.9827	197.891	219.475	230.465	235.819	245.963	253.571	252.726	250.485	
613.899	3228.32	16.8239	197.113	225.322	228.422	243.922	243.922	250.122	263.93	254.32	
614.08	3235.05	13.2325	198.86	220.632	226.562	235.599	251.412	246.894	257.907	250.396	
614.261	3230.65	14.5706	197.383	214.065	229.872	239.469	241.162	240.033	258.381	250.661	
614.441	3229.98	14.5899	196.33	219.516	227.433	245.246	246.377	245.246	256.556	250.887	
614.622	3228.16	12.2102	196.209	210.129	229.914	233.871	238.111	252.243	251.96	250.25	
614.803	3232.35	11.6888	198.777	215.115	231.255	238.334	244.564	247.678	267.216	249.476	
614.983	3228.32	11.4996	198.452	214.519	227.555	244.558	246.258	245.125	257.31	249.815	
615.164	3230.14	9.51396	197.382	218.118	230.599	234.57	232.301	247.051	254.993	248.88	
615.344	3222.68	8.28993	197.812	213.369	221.863	236.586	238.284	249.326	256.688	248.166	
615.525	3235.82	9.06512	196.17	217.483	230.839	235.67	239.08	248.174	250.447	248.87	
615.705	3232.71	8.48105	197.971	222.629	230.877	242.253	244.528	246.235	257.895	249.505	
615.886	3230.94	6.78777	195.765	217.14	234.479	234.479	244.428	242.154	248.692	248.507	
616.066	3228	8.03378	196.276	215.337	229.267	239.785	246.324	258.548	253.147	248.897	
616.247	3231.05	5.86007	194.929	224.3	224.585	243.948	240.815	250.212	260.748	247.92	
616.427	3231.24	6.58221	194.74	218.525	229.647	238.773	240.199	250.181	263.015	250.466	
616.607	3231.76	6.39419	195.297	216.025	224.882	236.596	230.882	254.31	261.453	249.068	
616.788	3229.38	5.8324	197.541	222.701	228.704	238.711	240.712	245.287	251.291	246.959	
616.968	3225.86	4.5658	194.298	207.515	228.685	234.979	240.7	248.424	253.86	248.668	
617.148	3228.13	6.08929	196.705	209.722	229.199	231.777	239.224	257.841	262.137	249.606	
617.329	3219.89	5.65934	195.597	207.11	226.299	239.187	245.775	240.619	250.071	248.095	
617.509	3218.99	5.60081	196.275	218.632	224.938	241.276	242.136	245.289	251.595	249.273	
617.689	3218.35	4.91855	195.1	210.424	225.059	227.929	241.416	245.721	249.738	246.495	
617.869	3218.39	5.87216	196.87	214.75	231.397	232.832	237.998	256.94	256.366	249.837	
618.049	3217.43	6.20512	195.907	217.926	221.086	239.472	245.504	252.399	252.973	247.228	
618.23	3214.28	6.66193	198.135	209.592	217.058	241.753	242.615	236.585	253.814	249.707	
618.41	3215.69	5.28181	196	214.849	215.713	229.249	239.617	247.105	252.001	246.773	
618.59	3224.49	6.97501	198.416	215.608	227.723	229.166	245.897	248.781	255.127	248.752	
618.77	3209.25	6.40169	194.593	219.814	224.703	230.455	243.109	243.972	252.599	246.747	
618.95	3213.46	8.23869	196.219	222.203	223.355	242.367	237.182	251.297	260.803	249.583	
619.13	3209.87	7.52163	194.724	212.663	223.038	231.107	238.312	242.634	249.839	247.101	
619.31	3211.78	6.89819	195.612	216.371	236.608	231.115	241.234	239.5	258.581	246.944	
619.49	3208.71	7.63012	196.173	211.33	234.179	237.94	232.733	242.567	261.368	248.656	
619.67	3202.34	7.03398	194.288	216.717	228.575	225.683	228.575	244.772	255.763	248.865	
619.85	3194.56	6.18708	194.777	215.854	223.66	231.755	243.32	243.609	250.837	247.209	
620.03	3198.94	6.68572	195.47	218.051	232.824	236.3	238.618	246.439	255.129	246.453	
620.209	3191.23	6.37094	195.124	221.148	216.519	232.721	235.036	246.03	247.766	246.435	
620.389	3193.74	7.96043	197.743	210.609	230.046	236.138	236.718	246.002	256.445	247.046	
620.569	3191.2	5.51746	195.643	219.677	229.25	234.762	230.12	246.655	248.396	246.206	
620.749	3185.9	7.39616	195.917	221.49	219.168	233.972	233.972	240.067	256.032	246.918	
620.929	3186.12	6.00725	192.848	218.643	221.548	232.296	240.429	243.334	250.596	245.31	
621.108	3188.83	7.70632	194.098	217.715	216.26	239.251	229.938	254.966	249.728	247.021	
621.288	3181.49	5.68557	195.306	214.306	230.018	225.654	233.51	251.55	248.641	247.229	
621.468	3182.15	5.95313	195.195	212.612	226.592	235.62	233.29	251.348	258.338	246.673	
621.647	3175.78	7.19814	195.121	216.48	217.354	232.204	238.028	246.181	251.714	245.308	
621.827	3175.05	5.34165	195.839	217.532	223.364	230.945	234.735	252.23	249.314	246.719	
622.007	3170.27	5.4931	194.326	209.327	220.99	230.903	240.233	248.98	253.645	245.146	
622.186	3172.24	6.12761	195.078	215.513	225.453	235.393	236.855	247.379	251.18	248.695	
622.366	3165.98	5.73673	194.488	211.079	223.055	234.738	242.041	250.219	253.725	246.305	
622.545	3157.58	5.77443	195.293	205.711	215.939	235.518	238.733	243.116	248.961	247.675	
622.725	3163.41	4.5942	194.332	213.762	222.248	234.538	238.342	242.439	243.609	244.97	
622.904	3163.8	5.62966	197.199	221.488	217.085	235.577	238.218	247.024	248.491	248.682	
623.084	3155.54	5.76504	195.967	217.447	222.725	235.334	235.334	243.252	252.635	246.126	
623.263	3150.93	6.26352	195.795	209.532	228.61	238.296	238.296	244.459	247.101	246.074	
623.443	3148.13	5.5817	195.037	218.279	227.083	245.278	234.126	238.822	249.68	244.148	
623.622	3147.37	4.35917	196.521	208.434	221.376	228.436	232.848	243.143	246.378	245.246	
623.802	3143.49	4.56008	196.763	216.166	213.224	235.289	239.702	245.586	253.529	247.012	
623.981	3139.9	5.33275	195.608	219.078	222.316	242.034	230.556	248.509	249.097	245.124	
624.16	3139.59	3.00608	196.394	215.595	233.573	237.109	238.877	242.414	248.898	248.323	
624.339	3129.68	5.86785	195.857	215.343	231.545	233.312	242.149	243.917	253.343	245.758	
624.519	3126.31	4.36479	196.778	219.561	224.279	229.293	237.845	249.642	249.642	245.823	
624.698	3126.53	5.69445	197.293	222.668	228.569	233.879	245.091	240.075	253.353	245.888	
624.877	3123.14	4.50344	196.062	220.101	227.193	237.24	239.309	242.264	252.902	244.288	
625.056	3114.38	5.06257	195.541	219.599	224.325	229.346	245.296	241.751	249.726	245.547	
625.235	3114.66	4.49856	195.193	207.668	229.865	234.6	236.376	243.183	252.949	246.305	
625.415	3109.4	4.10145	196.547	219.229	229.291	240.24	237.576	245.27	247.934	247.623	
625.594	3111.64	3.39813	197.053	218.18	226.186	236.861	242.791	249.018	254.356	245.193	
625.773	3104.57	4.45511	198.813	220.347	221.83	237.847	236.068	250.305	258.61	246.138	
625.952	3100.05	4.51552	198.644	218.982	222.542	235.893	247.76	249.243	256.067	247.285	
626.131	3099.36	5.24485	199.188	224.119	226.2	230.958	238.688	253.852	250.284	246.582	
626.31	3093.5	2.98473	198.601	212.469	224.658	235.954	235.36	245.17	241.603	246.939	
626.489	3082.24	4.82795	198.77	223.104	233.819	238.879	244.237	242.153	251.381	248.583	
626.668	3087.3	3.27787	197.137	213.169	222.406	233.73	243.265	247.437	249.523	247.571	
626.847	3085.21	3.84464	198.318	219.736	220.631	236.451	241.824	244.809	251.376	246.451	
627.026	3074.18	2.79946	197.917	219.599	227.359	239.596	251.832	248.549	250.638	246.818	
627.205	3071.44	4.16243	199.545	220.926	221.823	244.848	240.96	240.96	248.735	246.178	
627.383	3063.1	4.90104	198.812	220.672	228.143	228.143	244.281	245.476	248.166	245.312	
627.562	3060.88	3.9508	200.937	214.301	227.47	230.164	240.64	252.911	246.626	248.781	
627.741	3060	6.46914	197.111	218.89	228.782	231.48	245.57	252.764	249.167	247.413	
627.92	3056.05	3.24802	199.072	216.993	225.098	240.708	243.71	254.817	253.916	248.858	
628.099	3050.67	2.16658	198.612	221.598	235.402	234.501	236.902	242.003	250.106	247.81	
628.277	3046.16	3.89062	199.585	217.46	229.787	236.101	239.709	245.121	255.043	247.271	
628.456	3045.24	5.05573	198.999	221.446	226.869	232.594	243.44	253.684	252.479	250.686	
628.635	3045.74	5.37485	201.071	219.561	230.419	245.5	245.801	251.231	256.358	248.38	
628.813	3042.15	3.56107	202.407	224.535	221.512	235.72	251.439	248.114	255.067	249.323	
628.992	3032.17	4.8449	202.542	217.724	227.402	239.499	245.85	251.293	264.298	249.464	
629.171	3028.9	6.03352	201.503	221.383	222.593	236.512	248.313	255.272	265.862	251.006	
629.349	3023.1	5.89024	202.934	220.632	229.732	242.774	235.798	245.2	255.816	249.28	
629.528	3020.01	5.25562	202.815	213.253	238.439	240.563	237.528	248.149	257.252	250.637	
629.706	3012.14	8.54463	202.196	213.142	229.235	235.916	249.883	244.721	253.831	249.853	
629.885	3005.91	7.12792	202.845	222.835	235.586	234.675	231.639	246.514	255.925	248.503	
630.063	3003.89	7.62912	203.268	226.547	229.888	237.481	249.629	237.481	258.436	248.277	
630.242	3000.01	7.09417	203.798	225.561	234.983	234.071	248.053	260.819	258.387	249.527	
630.42	2997.66	6.55521	204.628	219.721	225.509	233.124	243.176	252.619	259.93	250.426	
630.599	2992.81	6.56304	205.494	231.673	230.455	239.587	246.284	249.937	254.808	250.881	
630.777	2984.37	6.98938	204.228	219.096	228.846	239.814	238.9	252.611	250.174	252.139	
630.955	2979.59	6.45962	206.72	219.072	241.031	244.081	247.436	245.301	250.486	250.059	
631.134	2964.93	7.81709	204.587	221.557	227.037	239.822	243.779	252.607	266.609	250.902	
631.312	2966.33	5.73928	206.706	225.378	233.63	240.659	237.908	249.521	253.494	250.621	
631.49	2964.09	6.98421	205.376	221.657	230.234	241.874	235.441	244.018	251.983	250.237	
631.669	2952.71	4.72899	206.376	227.678	229.515	241.767	245.136	249.424	261.063	252.134	
631.847	2952.31	4.75504	208.291	221.208	237.795	240.252	248.546	250.082	257.147	252.555	
632.025	2943.02	2.08944	208.464	228.836	232.523	241.127	246.658	254.032	246.043	249.316	
632.203	2941.95	1.83308	207.271	220.371	239.812	241.047	242.59	253.391	258.637	253.53	
632.381	2935	3.48894	207.709	226.991	234.093	231.005	250.457	260.337	253.853	254.224	
632.56	2940.62	3.46749	211.538	231.776	232.706	255.347	241.391	253.797	264.652	255.502	
632.738	2932.92	1.59299	208.551	228.634	231.733	243.51	251.878	259.006	260.556	253.226	
632.916	2927.79	1.93967	209.905	215.049	234.879	238.288	249.133	250.682	262.766	254.307	
633.094	2921.93	1.35496	210.503	227.968	226.104	243.818	253.452	263.085	259.045	254.135	
633.272	2915.76	2.14649	210.542	219.408	237.762	234.029	240.251	245.539	262.649	255.09	
633.45	2909.37	2.9413	210.269	233.153	239.371	248.699	253.362	251.808	256.472	254.062	
633.628	2903.01	3.53352	213.028	232.298	237.585	251.272	248.161	247.85	264.336	256.388	
633.806	2897.96	2.39793	211.534	229.503	236.977	247.254	253.171	255.04	258.154	253.529	
633.984	2889.8	1.60677	213.274	225.403	237.858	242.529	247.2	255.608	263.704	254.487	
634.162	2883.77	0.585667	212.544	230.566	236.796	243.338	253.307	260.472	261.718	255.426	
634.339	2876.86	1.1489	214.854	226.296	242.842	244.091	250.023	263.76	262.199	256.564	
634.517	2870.45	0.69998	215.463	234.087	236.587	250.962	250.337	253.774	267.524	259.196	
634.695	2863.92	1.50043	216.619	233.342	242.72	248.347	250.535	258.662	262.413	255.802	
634.873	2856.89	0.801055	214.971	232.807	236.561	249.078	251.581	259.091	263.785	255.743	
635.051	2852.9	2.79781	216.545	233.31	249.934	246.797	251.502	250.247	258.402	256.285	
635.229	2842.17	2.4423	215.593	237.135	241.832	240.266	243.711	260.619	264.689	255.39	
635.406	2844.71	2.04699	218.247	233.961	249.077	248.133	258.21	258.84	270.492	259.485	
635.584	2835.7	1.55592	217.517	236.494	242.163	247.833	245.628	260.431	257.596	257.156	
635.762	2830.93	2.44928	218.071	230.87	233.079	247.598	256.436	253.595	274.111	259.15	
635.939	2825.74	0.656691	217.346	234.3	241.246	244.403	261.136	262.714	266.503	258.279	
636.117	2811.53	1.27087	217.721	232.184	239.456	253.682	252.417	260.953	262.534	258.961	
636.295	2809.89	0.177483	219.379	233.466	250.581	244.242	253.116	254.701	264.526	259.391	
636.472	2804.23	1.02772	219.665	241.71	248.054	254.398	253.764	250.909	260.108	260.393	
636.65	2801.61	0.685241	218.62	235.64	241.351	254.992	262.923	259.751	264.509	258.037	
636.827	2796.9	2.60348	223.237	233.231	242.143	257.102	253.282	258.057	257.42	261.589	
637.005	2786.76	1.69231	221.614	242.02	248.064	251.563	262.379	263.333	257.289	259.706	
637.182	2781.58	2.35647	222.954	243.048	243.366	257.059	263.11	258.333	257.696	260.371	
637.36	2775.08	2.85164	221.247	242.395	248.442	252.898	252.898	269.448	267.857	262.669	
637.537	2758.15	6.67418	223.999	229.359	243.992	261.489	253.854	270.715	261.489	261.044	
637.715	2760.97	0.305939	225.56	240.442	233.75	257.333	251.915	260.201	270.08	263.085	
637.892	2758.21	1.78285	225.866	237.911	230.243	250.053	265.708	262.833	273.057	263.999	
638.069	2752.55	2.02462	225.4	239.69	251.186	251.825	266.515	266.195	267.792	261.405	
638.247	2748.04	1.06866	226.198	241.044	245.203	259.281	257.681	258.321	268.88	263.953	
638.424	2738.86	2.91256	226.446	240.641	243.522	259.205	249.603	265.606	265.286	263.381	
638.601	2731.06	2.0527	229.043	235.553	242.289	261.212	257.363	257.684	264.42	263.265	
638.778	2726.76	0.109069	226.786	235.063	245.328	249.178	263.934	265.217	255.914	263.052	
638.956	2723.42	1.49398	227.9	244.112	248.941	246.043	259.889	264.396	276.309	266.682	
639.133	2715.72	1.79039	229.344	248.955	250.887	254.107	261.513	264.733	268.919	265.136	
639.31	2703.55	1.15926	230.893	239.941	255.398	263.127	255.72	262.805	270.211	264.431	
639.487	2694.37	1.94147	230.926	242.665	250.405	256.855	260.725	260.08	263.628	265.659	
639.664	2689.56	2.91589	231.28	247.508	251.064	260.438	265.611	264.318	266.257	266.936	
639.841	2691.23	1.75519	233.738	249.638	249.638	263.239	253.524	269.716	270.687	267.74	
640.019	2683.79	1.84148	233.54	244.806	251.291	268.149	250.318	270.743	275.606	267.614	
640.196	2675.36	0.810803	233.709	243.293	261.13	257.887	258.86	270.86	272.806	269.271	
640.373	2668.8	2.04712	235.234	248.573	253.772	262.22	260.595	263.52	270.344	267.484	
640.55	2664.85	0.0130173	237.595	253.948	259.48	267.616	261.758	261.758	270.545	270.105	
640.727	2651.84	1.17719	236.172	248.237	250.188	261.57	264.822	267.098	275.228	268.903	
640.904	2644.05	-0.0911742	235.151	245.669	253.809	260.647	265.857	275.3	263.578	267.583	
641.081	2642.88	1.31314	239.217	247.4	251.646	262.752	263.406	276.472	269.939	270.543	
641.257	2642.45	3.76703	238.405	252.548	254.837	263.993	269.879	268.571	281.978	271.563	
641.434	2626.21	1.2647	241.705	241.262	247.815	271.406	262.232	268.784	278.614	272.356	
641.611	2623.94	-0.229667	241.794	252.686	253.343	256.624	265.482	273.685	282.543	272.799	
641.788	2614.45	1.70147	243.231	254.498	262.381	261.724	270.921	263.038	276.177	271.972	
641.965	2614.84	3.8722	242.928	256.231	257.877	267.755	273.353	273.353	274.999	272.892	
642.142	2603.8	0.895813	242.594	248.061	262.552	256.624	269.139	267.822	284.289	273.552	
642.318	2601.1	1.49803	244.47	250.937	262.816	265.785	271.395	272.384	282.613	274.711	
642.495	2583.06	1.68209	244.401	247.023	264.834	262.195	273.739	273.409	280.336	276.839	
642.672	2586.94	1.46888	243.509	252.144	253.798	271.001	271.663	276.294	273.648	273.085	
642.848	2575.47	1.51407	246.381	254.497	262.1	270.365	270.034	279.621	286.233	274.844	
643.025	2573.31	1.09178	248.376	262.735	252.148	267.367	272.991	274.645	279.608	274.893	
643.202	2564.79	1.57783	249.397	269.882	268.225	266.899	276.843	276.511	274.191	276.826	
643.378	2557	0.703295	249.059	253.77	271.352	270.357	267.372	276.992	278.319	276.428	
643.555	2552.13	0.969852	251.66	262.604	257.622	277.55	267.254	268.583	281.204	276.986	
643.731	2544.59	3.73545	252.355	264.718	257.739	272.029	274.688	278.012	288.979	278.693	
643.908	2537.87	2.80122	254.908	258.46	264.796	277.801	273.133	269.131	282.47	280.869	
644.084	2533.89	1.60718	253.027	266.931	258.929	272.266	269.265	278.268	290.272	279.435	
644.261	2528.74	2.2095	255.077	261.371	262.71	277.775	282.461	272.418	281.792	278.344	
644.437	2514.91	1.79266	255.127	266.933	268.94	268.271	272.619	273.956	283.99	280.01	
644.614	2510.7	1.1606	255.037	261.511	266.543	273.922	271.239	273.922	286.669	279.054	
644.79	2493.09	1.4283	256.149	260.306	274.388	271.371	278.411	283.776	278.747	276.852	
644.967	2496.58	2.18635	258.212	259.86	271.969	269.614	277.687	276.678	284.078	282.48	
645.143	2493.77	2.93704	256.92	270.51	270.51	279.604	270.174	286.004	288.698	283.528	
645.319	2489.34	3.01987	259.56	266.89	269.593	277.024	283.78	278.037	285.469	283.442	
645.496	2487.39	-0.0744557	261.461	278.755	273.679	274.694	276.725	286.539	277.402	282.664	
645.672	2469.52	1.4654	263.563	273.49	270.451	272.814	275.178	281.256	285.983	285.865	
645.848	2471.29	1.08931	262.998	261.137	269.933	275.346	270.61	283.465	285.156	285.985	
646.024	2459.22	2.35727	264.305	265.491	271.248	280.054	277.683	286.489	293.602	285.575	
646.201	2458.79	1.78599	265.495	269.637	274.051	274.391	284.577	280.842	280.502	286.801	
646.377	2450.87	0.455069	269.143	270.467	284.052	288.466	285.07	285.07	296.617	288.11	
646.553	2444.68	2.15039	265.94	270.431	273.834	272.473	287.104	293.228	296.971	288.244	
646.729	2442.56	4.13321	268.914	265.01	281.72	290.246	290.246	288.199	296.384	288.472	
646.905	2431.23	1.07093	266.216	277.693	269.166	278.375	285.878	286.219	296.792	290.261	
647.081	2419.26	4.5697	270.468	274.782	278.874	285.013	286.718	290.128	295.925	291.424	
647.257	2413.86	1.71969	271.657	268.415	287.182	276.604	283.429	293.324	297.418	290.321	
647.433	2412.89	0.0683872	271.401	275.231	277.283	284.805	292.328	284.121	290.276	290.687	
647.609	2404.43	3.08052	274.782	278.787	285.29	281.183	289.055	289.74	292.136	291.691	
647.785	2404.05	0.720823	275.124	279.569	287.464	289.867	294.672	296.732	302.567	293.042	
647.961	2393.53	0.575647	274.813	285.247	279.422	282.163	280.45	296.211	293.128	293.23	
648.137	2385.87	2.38899	276.92	272.475	286.548	287.578	286.548	294.786	293.413	293.893	
648.313	2381.66	-0.825619	277.346	272.771	284.123	286.875	291.691	297.539	299.603	293.222	
648.489	2377.57	1.58428	280.142	283.345	294.711	286.789	295.055	288.856	296.777	293.66	
648.665	2358.34	-0.068704	278.303	282.476	286.599	284.881	290.034	296.217	306.523	295.891	
648.841	2356.06	4.3519	279.462	284.919	281.131	294.559	286.296	296.625	298.346	294.903	
649.016	2350.8	3.30031	282.783	277.805	286.417	293.307	285.039	296.063	291.24	295.305	
649.192	2345.85	1.69113	284.161	295.119	295.119	298.225	290.287	309.959	307.889	299.588	
649.368	2339.04	2.30783	285.733	289.377	293.869	292.487	292.832	298.36	298.705	298.239	
649.544	2324.71	3.57417	286.268	282.352	286.147	301.327	292.357	292.357	306.157	299.533	
649.719	2322.81	3.95243	285.373	294.857	295.893	296.93	290.711	300.73	294.857	297.171	
649.895	2317.86	4.30444	287.034	285.096	295.131	302.743	300.667	308.625	288.903	301.29	
650.071	2303.9	2.89427	286.774	284.391	300.969	296.825	303.732	303.387	296.134	298.517	
650.246	2300.05	3.18931	290.421	290.49	297.062	297.754	292.911	289.106	306.056	301.94	
650.422	2291.95	3.37591	288.809	290.902	294.361	296.09	298.512	294.015	297.82	299.947	
650.597	2285.84	2.36821	292.238	285.14	287.564	287.91	297.258	301.413	309.723	301.153	
650.773	2275.65	3.28159	292.986	297.468	294.699	295.045	300.584	306.815	311.661	303.163	
650.949	2271.14	3.38746	295.575	290.275	295.817	306.555	304.13	298.242	308.979	301.861	
651.124	2266.04	2.6175	295.608	296.181	306.595	294.098	298.958	301.388	310.067	304.807	
651.3	2256.62	3.02592	296.533	300.142	289.385	305	300.489	294.59	303.612	304.983	
651.475	2250.87	0.549268	294.686	298.927	298.927	313.18	291.279	302.403	308.661	305.81	
651.65	2241.63	2.00048	298.412	293.064	303.83	294.8	308.693	310.082	308.693	303.518	
651.826	2238.86	2.60146	298.292	298.326	283.024	308.412	299.37	310.499	306.673	304.847	
652.001	2224.26	1.768	300.469	282.267	294.1	302.105	296.188	305.933	312.894	307.029	
652.177	2227.24	2.18971	302.466	294.9	295.946	307.801	310.939	309.893	311.288	307.905	
652.352	2213.59	2.12449	304.091	295.994	300.87	297.387	304.701	304.701	315.149	306.337	
652.527	2210.54	0.348461	303.537	296.952	301.133	308.451	303.572	314.723	304.618	305.907	
652.702	2199.09	1.61019	307.166	305.196	307.636	307.636	296.832	308.682	320.88	309.919	
652.878	2190.48	0.729448	307.535	307.987	311.808	304.513	295.829	317.365	305.208	309.671	
653.053	2182.69	3.15506	306.877	300.643	299.947	307.956	312.832	312.484	322.234	310.203	
653.228	2182.01	0.272351	308.476	297.268	300.061	308.441	300.061	308.092	312.98	313.033	
653.403	2170.83	0.94944	309.629	305.406	306.104	309.245	306.453	314.83	319.019	314.202	
653.578	2168.45	1.04297	310.157	302.719	297.82	307.969	313.919	313.569	311.119	312.292	
653.754	2164.58	1.30422	313.293	314.591	305.475	312.838	313.188	310.384	314.591	312.014	
653.929	2151.08	2.0564	313.835	305.215	301.018	317.805	310.81	316.406	307.313	312.244	
654.104	2147.82	0.196453	313.269	301.184	308.901	315.567	316.97	310.655	314.514	313.76	
654.279	2137.84	2.26676	312.553	307.236	305.487	315.282	307.586	319.48	304.088	313.9	
654.454	2134.88	2.6463	316.703	312.404	313.106	311.702	316.966	319.072	309.596	314.913	
654.629	2124.86	2.18562	316.578	309.188	312.34	310.589	310.589	314.442	315.843	316.368	
654.804	2121.29	1.80581	319.143	307.479	317.316	316.613	312.749	313.803	326.45	316.35	
654.979	2116.64	1.61637	320.343	308.852	314.826	327.827	318.34	314.475	317.286	317.426	
655.154	2109.39	3.60773	322.885	324.52	317.488	326.278	315.378	321.707	324.169	320.723	
655.329	2095.51	1.01081	323.069	303.256	314.839	311.329	317.646	321.507	314.488	318.085	
655.503	2084.46	2.36405	324.022	307.431	319.357	316.551	313.394	319.357	317.954	319.69	
655.678	2085.82	3.06072	323.432	319.536	312.867	320.589	313.569	331.47	318.834	318.554	
655.853	2075.14	-1.43051e-08	326.234	325.076	316.65	316.299	314.192	311.032	327.533	318.686	
656.028	2067.89	1.41063	324.386	317.175	315.07	316.824	318.93	314.368	328.755	321.035	
656.203	2064.09	1.64586	330.009	317.981	316.574	326.773	319.036	310.244	328.883	320.003	
656.377	2051.53	-0.0912036	325.106	323.597	312.372	322.545	317.634	327.456	319.739	320.317	
656.552	2046.42	3.04822	331.098	324.92	318.232	311.545	318.936	322.808	327.032	322.65	
656.727	2040.68	0.647912	330.002	316.92	325.371	314.103	327.836	315.864	332.062	321.375	
656.902	2029.34	2.27978	333.46	319.247	324.524	326.635	324.524	311.155	324.524	324.33	
657.076	2025.89	2.69153	332.89	325.28	325.632	331.269	321.757	332.326	318.587	325.016	
657.251	2017.97	1.48614	335.089	329.613	313.414	328.205	322.218	319.753	323.626	323.345	
657.425	2015.18	-0.514086	334.061	322.846	313.691	322.494	327.424	323.198	330.593	324.695	
657.6	2006.43	1.66916	337.407	322.071	316.437	339.678	323.832	325.24	336.509	325.328	
657.775	1996.6	1.96177	337.801	327.623	316.021	322.349	318.482	331.842	322.701	325.303	
657.949	1993.51	1.73039	339.476	334.64	326.551	330.772	324.793	319.869	338.157	328.591	
658.124	1983.89	1.79242	340.806	315.571	326.818	332.441	323.303	326.467	327.521	327.96	
658.298	1983.3	1.26055	340.894	335.313	323.694	336.37	333.905	332.144	340.595	329.82	
658.472	1965.99	0.37219	342.478	322.499	328.82	327.064	338.3	329.522	336.544	328.047	
658.647	1969.82	1.48709	345.273	321.275	335.371	327.266	331.142	325.151	331.494	330.737	
658.821	1963.72	1.25245	344.365	328.023	336.467	329.079	328.023	329.782	319.228	327.267	
658.996	1957.86	1.69181	348.019	337.939	320.316	335.471	334.767	329.832	336.176	330.872	
659.17	1951.71	1.12082	349.206	333.081	332.023	340.835	332.023	333.786	326.032	330.49	
659.344	1941.47	1.89467	347.507	325.321	329.547	339.055	337.999	330.955	337.294	332.364	
659.519	1939.6	4.14907	349.891	338.742	322.16	334.155	326.041	332.038	336.625	334.455	
659.693	1931.62	3.26366	351.016	337.094	340.266	342.381	326.521	322.292	334.98	335.156	
659.867	1927.4	2.89008	355.667	348.565	330.59	330.943	331.295	341.868	331.647	335.013	
660.041	1922.74	0.60684	355.615	344.713	329.542	335.187	332.012	338.363	335.893	334.764	
660.216	1917.35	3.10278	355.925	341.786	335.086	331.561	335.792	340.375	342.491	338.083	
660.39	1909.74	0.473403	357.374	337.678	331.672	339.444	350.043	336.265	339.798	337.695	
660.564	1903.31	-0.310734	358.99	339.322	340.734	332.613	345.678	334.025	342.853	340.434	
660.738	1899.75	2.64959	362.464	340.49	338.724	350.029	338.017	336.251	344.73	337.752	
660.912	1894.24	1.55127	360.59	334.377	349.537	333.672	339.665	338.255	346.364	337.867	
661.086	1886.64	3.26749	361.083	334.936	343.404	344.816	346.933	350.814	339.876	341.816	
661.26	1878.17	1.05583	361.484	351.788	342.99	339.822	339.822	342.638	345.453	338.696	
661.434	1871.39	3.80722	365.398	340.034	324.875	347.789	332.983	354.135	348.494	341.268	
661.608	1866.44	0.95121	366.462	358.007	344.972	349.904	341.801	336.869	335.46	339.705	
661.782	1862.94	2.67848	366.158	344.219	338.58	349.858	341.752	342.457	349.153	344.642	
661.956	1854.48	1.92795	371.419	353.582	349.712	346.194	341.62	349.009	351.823	342.518	
662.13	1847.02	1.89961	367.884	350.682	357.366	347.868	339.074	341.184	353.848	344.227	
662.304	1838.59	2.17385	368.992	352.46	346.128	352.811	338.389	348.59	355.977	344.703	
662.478	1829.07	3.1585	369.818	350.165	347.006	358.588	342.795	343.497	343.497	343.778	
662.652	1824.32	1.12433	374.209	347.207	348.964	345.45	342.288	344.748	344.748	344.8	
662.826	1818.15	1.50508	372.556	349.558	347.448	350.613	346.042	344.987	345.338	346.551	
662.999	1812.33	1.48354	375.813	347.373	339.287	331.553	342.802	342.451	346.318	349.042	
663.173	1803.92	2.01024	376.677	348.72	364.886	349.071	344.151	347.314	352.586	349.159	
663.347	1801.86	2.81671	378.471	350.779	343.737	355.708	343.385	354.3	355.708	347.716	
663.521	1794.35	2.46955	379.062	359.204	354.279	353.575	346.539	346.188	358.5	350.022	
663.694	1781.37	0.794105	375.91	351.753	365.808	347.888	351.753	341.915	347.537	348.31	
663.868	1780.41	3.82411	380.376	359.902	356.036	357.794	344.086	347.952	354.982	348.989	
664.042	1770.9	1.77573	381.344	360.48	357.673	348.198	353.813	355.216	349.601	350.882	
664.215	1768.52	1.33642	382.252	352.077	343.988	363.331	345.395	342.933	357.001	351.848	
664.389	1769.29	-0.30971	383.653	364.331	353.421	355.533	354.125	355.885	354.477	352.049	
664.562	1758.15	2.05969	387.348	367.771	349.845	359.335	360.39	356.523	355.82	355.943	
664.736	1745.96	2.60058	385.593	358.431	366.492	357.73	353.875	360.183	351.772	352.788	
664.909	1744.23	3.49106	391.307	361.244	364.405	354.922	360.19	355.273	357.732	354.711	
665.083	1737.71	0.210341	387.487	361.353	355.042	360.651	358.548	367.312	350.835	354.692	
665.256	1728.83	1.2122	389.94	367.675	362.42	357.165	357.165	347.705	368.026	355.921	
665.43	1721.9	1.67363	389.333	350.818	357.121	358.521	359.922	361.672	363.423	356.368	
665.603	1718.38	1.98795	394.647	360.543	364.406	357.03	363.704	361.947	363.704	357.452	
665.777	1706.2	4.26412	393.108	374.185	367.884	355.63	360.532	365.083	356.331	357.048	
665.95	1702.45	1.43051e-08	394.348	374.537	359.811	358.759	350.343	371.732	355.603	355.936	
666.123	1697.01	2.71313	396.086	371.321	365.011	350.639	351.34	360.805	362.207	355.249	
666.297	1682.99	4.14156	395.582	372.93	355.06	361.717	352.958	354.359	365.221	357.303	
666.47	1685.44	2.16188	398.621	378.055	363.315	360.156	376.3	354.19	365.069	358.173	
666.643	1671.99	0.889638	398.323	367.203	361.249	357.396	358.097	372.807	363.701	361.196	
666.816	1670.36	1.66208	398.689	378.492	369.024	357.453	361.66	365.518	362.712	357.856	
666.99	1657.8	2.28343	397.708	375.746	368.414	353.051	352.004	348.163	363.177	356.054	
667.163	1656.86	2.92798	398.741	376.519	359.007	364.261	356.906	357.606	369.864	359.095	
667.336	1644.58	-0.251733	401.545	386.459	371.775	364.782	368.628	363.383	355.342	361.618	
667.509	1633.58	0.932787	402.299	369.982	374.855	363.021	355.364	364.414	350.143	361.386	
667.682	1629.85	1.82503	402.608	370.809	361.754	378.472	359.316	356.53	370.113	361.527	
667.855	1622.68	0.153083	401.111	378.601	359.118	376.166	360.51	358.074	362.945	361.658	
668.029	1615.84	2.24466	403.708	383.51	363.294	354.928	361.551	359.46	353.186	361.76	
668.202	1614.88	3.64094	405.8	381.83	368.902	360.865	361.913	359.118	358.07	362.63	
668.375	1604.67	1.9908	408.663	375.221	366.839	367.188	377.317	355.313	369.982	363.434	
668.548	1598.09	1.66336	405.12	379.016	370.28	375.522	356.302	361.893	356.652	361.072	
668.721	1588.55	2.1028	407.887	383.121	358.321	378.231	357.273	352.034	358.321	359.683	
668.893	1583.55	0.705925	407.151	375.804	371.261	362.175	351.341	367.067	369.164	362.227	
669.066	1572.2	2.06506	407.25	377.285	369.96	370.658	359.844	363.332	368.216	362.408	
669.239	1568.37	1.12281	411.661	374.071	375.466	374.769	371.979	359.077	363.959	363.262	
669.412	1561.11	2.47408	410.37	379.304	371.965	367.073	365.675	360.434	375.11	365.239	
669.585	1555.11	2.43391	412.255	388.526	371.789	367.953	369.697	372.137	363.769	363.507	
669.758	1545.66	2.59749	409.561	376.657	382.924	380.835	371.086	370.39	365.515	363.913	
669.931	1536.27	1.34743	409.148	374.108	372.718	368.204	364.384	354.313	362.3	361.31	
670.103	1539.09	0.285508	414.184	390.421	388.332	372.664	369.53	363.96	363.96	367.789	
670.276	1530.6	0.924722	412.36	390.441	372.017	349.42	372.017	362.283	366.107	366.263	
670.449	1521.55	0.208278	416.66	389.966	380.246	376.775	373.304	368.444	365.32	369.503	
670.622	1512.95	0.659	414.639	382.574	376.331	366.619	362.457	362.457	366.272	366.168	
670.794	1507.82	2.00372	415.588	378.495	379.535	372.255	362.548	366.015	375.721	367.54	
670.967	1503.1	2.47345	415.658	397.852	381.916	367.02	374.295	362.17	361.824	366.622	
671.139	1494.21	1.36629	416.004	391.938	371.131	373.559	366.97	360.381	365.236	367.092	
671.312	1487.48	0.346228	417.378	385.629	380.089	370.048	367.625	366.932	361.047	368.162	
671.485	1475.14	2.1887	417.379	379.612	369.601	371.672	368.91	362.006	362.351	366.614	
671.657	1471.92	0.629154	422.384	391.237	383.286	377.409	374.644	373.261	353.557	366.728	
671.83	1465.65	2.0802	419.886	399.654	379.267	371.665	365.445	361.644	358.879	366.481	
672.002	1458.54	1.97694	419.473	393.016	375.044	376.081	368.132	372.625	368.132	369.376	
672.175	1452.19	1.89265	420.911	391.122	374.89	381.797	376.962	368.673	364.874	370.106	
672.347	1445.81	-0.199848	424.206	390.042	383.84	367.645	365.578	361.787	370.057	367.542	
672.519	1437.14	0.516753	424.743	390.259	381.302	387.847	369.933	369.933	371.656	371.725	
672.692	1432.41	1.903	421.917	385.323	383.944	385.323	366.362	386.012	360.156	369.378	
672.864	1425.16	2.17157	424.691	395.598	382.155	388.015	385.947	359.061	375.951	371.056	
673.037	1424.32	1.47709	426.7	396.951	381.766	380.041	372.448	359.679	379.35	370.964	
673.209	1413.72	1.03933	424.784	386.893	383.796	377.946	377.257	365.9	365.556	370.529	
673.381	1405.87	1.3677	426.446	389.745	381.498	383.559	386.996	370.845	359.505	370.209	
673.553	1402.43	1.52589	427.559	385.803	380.304	383.741	364.152	376.18	368.963	369.358	
673.726	1395.88	0.653372	427.845	397.979	383.88	384.224	376.659	382.161	378.034	373.34	
673.898	1390.5	0.701307	428.987	398.975	381.442	381.099	373.535	375.942	376.286	374.807	
674.07	1385.5	1.30006	429.994	400.468	381.895	383.959	376.736	374.329	371.233	370.872	
674.242	1376.82	2.01899	430.018	392.934	388.471	378.17	375.079	367.525	379.2	372.899	
674.414	1369.77	1.61256	430.041	402.302	381.373	373.139	374.511	375.197	371.08	371.097	
674.587	1364.06	3.76483	432.167	393.113	387.627	388.998	371.169	372.883	366.368	374.015	
674.759	1363.1	1.73314	429.917	410.437	384.302	382.583	377.081	380.176	373.298	374.209	
674.931	1354.02	1.95599	431.836	412.207	393.677	376.862	369.656	375.832	374.46	376.793	
675.103	1346.03	0.554994	431.522	397.52	386.557	377.992	372.853	374.566	375.594	372.1	
675.275	1341.68	1.89565	433.22	398.312	389.04	381.828	379.768	377.364	373.586	374.668	
675.447	1334.76	0.638082	431.333	391.282	386.479	371.384	373.443	371.384	378.246	374.369	
675.619	1326.21	1.28268	433.439	386.813	385.784	379.954	385.441	369.665	365.892	373.266	
675.791	1318.77	0.40448	434.131	395.26	386.005	383.605	362.353	374.007	367.837	375.224	
675.963	1317.97	0.974989	435.23	399.32	380.438	384.901	375.288	375.288	371.855	374.928	
676.134	1313.23	0.803792	434.745	393.096	384.165	385.882	390.691	374.89	375.234	376.298	
676.306	1306.22	0.735865	438.242	405.798	396.514	385.511	370.037	377.258	369.693	377.327	
676.478	1301.01	0.425538	436.07	399.676	389.724	387.322	381.831	377.713	368.791	377.542	
676.65	1295.34	0.240399	439.951	395.786	399.564	384.453	376.554	376.897	381.019	377.447	
676.822	1290.58	3.48173	437.246	403.132	386.994	384.247	367.079	383.217	374.29	377.363	
676.994	1279.99	2.16238	439.838	400.727	390.43	392.489	362.628	383.222	372.238	376.391	
677.165	1279.85	1.24998	440.269	402.872	383.985	382.268	385.015	382.955	364.755	377.426	
677.337	1270.59	2.48153	440.76	397.984	395.585	395.928	373.306	380.847	372.963	377.83	
677.509	1262.25	1.12469	440.452	407.568	385.966	391.109	376.708	377.737	371.565	378.285	
677.68	1257.52	3.13822	441.376	402.853	390.492	383.282	380.878	384.998	375.728	377.342	
677.852	1253.75	0.0274445	442.12	397.231	385.567	389.341	372.874	384.881	376.305	379.598	
678.024	1251.11	3.54896	442.849	403.026	390.99	378.954	381.705	384.456	373.796	379.178	
678.195	1244.96	-0.343949	442.752	410.352	407.944	387.651	383.868	384.9	376.989	379.465	
678.367	1239.14	3.47252	445.885	400.049	390.748	393.849	388.337	372.49	376.968	378.277	
678.538	1232.65	0.770831	442.195	402.209	400.832	387.756	382.938	374.335	375.367	378.86	
678.71	1221.73	1.31385	445.534	402.507	400.1	390.125	386.686	378.431	385.998	380.564	
678.881	1220.01	1.59098	443.412	400.383	397.972	395.906	376.966	391.774	380.41	381.58	
679.053	1215.08	1.24073	446.225	407.573	389.996	398.956	385.515	386.205	384.137	382.982	
679.224	1208.58	2.08739	444.665	409.651	399.317	388.295	381.406	377.961	369.35	377.427	
679.396	1204.5	1.95851	448.85	412.301	395.06	391.612	387.819	390.233	377.475	382.63	
679.567	1196.67	2.85958	444.462	413.213	394.609	390.474	377.727	380.827	384.962	379.346	
679.738	1192.9	2.50504	447.795	416.568	403.802	399.661	383.789	374.128	379.648	381.477	
679.91	1187.84	0.882926	448.882	414.755	386.473	388.198	384.749	386.818	379.92	380.438	
680.081	1180.62	1.22257	448.628	403.49	393.82	391.057	375.861	374.825	373.098	381.007	
680.252	1173.97	1.08316	445.835	415.927	385.226	390.056	387.986	384.536	375.222	379.103	
680.424	1166.98	1.2015	445.429	394.244	394.59	386.649	393.899	371.457	381.815	379.433	
680.595	1163.13	3.69152	451.438	405.658	408.428	390.421	377.608	384.534	375.877	381.262	
680.766	1158.72	2.17267	447.282	396.442	387.447	389.523	387.793	380.528	381.912	381.756	
680.937	1146.44	2.21861	449.583	406.213	401.721	389.625	384.787	382.023	379.604	379.673	
681.108	1144.28	3.72817	448.96	398.347	405.263	392.467	384.513	383.475	387.971	382.04	
681.28	1141.81	1.82393	449.684	411.507	384.807	385.154	372.324	377.872	382.033	380.559	
681.451	1131.22	1.69645	451.876	395.841	394.11	394.803	389.956	381.647	384.416	384.105	
681.622	1127.5	3.32845	448.341	417.669	395.525	406.943	375.112	379.956	377.534	379.402	
681.793	1119.67	3.03975	448.758	400.34	396.185	392.377	385.799	369.873	379.913	381.558	
681.964	1114.29	2.0821	449.975	401.658	393.357	391.628	385.402	379.177	378.831	382.946	
682.135	1110.83	0.429873	451.197	412.976	384.203	390.096	388.363	384.896	376.923	381.516	
682.306	1104.27	0.520409	450.119	408.07	404.6	384.478	390.029	391.417	377.192	382.067	
682.477	1101.45	2.39103	448.089	403.014	406.142	391.198	379.034	380.772	380.772	382.545	
682.648	1090.83	1.88054	448.808	408.89	407.849	389.113	385.644	382.174	378.01	379.728	
682.819	1089.04	1.00712	451.012	416.856	396.02	397.061	390.81	377.961	383.517	382.163	
682.99	1085.67	1.62485	450.125	416.687	394.72	396.463	400.299	374.148	382.516	379.988	
683.16	1073.46	4.27193	449.388	415.087	402.911	391.431	385.865	375.081	386.213	382.717	
683.331	1071.72	1.86045	452.541	412.266	393.453	388.227	393.801	389.969	379.169	381.015	
683.502	1064.88	0.669325	450.543	398.304	395.167	384.012	391.681	376.691	379.48	379.532	
683.673	1061.05	1.94684	450.99	400.679	399.284	383.932	387.77	382.537	378.35	380.059	
683.844	1053.01	1.70816	452.275	406.8	400.525	388.673	392.159	385.535	372.288	381.056	
684.014	1049.66	1.27656	448.911	413.404	380.967	388.641	378.177	372.247	373.643	379.781	
684.185	1046.67	1.46927	450.623	409.396	402.049	397.501	388.756	373.014	389.106	379.135	
684.356	1036.94	1.38424	448.917	396.606	398.704	389.266	378.08	386.819	379.478	381.068	
684.526	1033.32	2.66525	448.648	411.974	396.235	392.737	390.638	377.347	376.647	380.897	
684.697	1028.3	1.65985	452.41	408.743	391.234	401.739	372.674	374.075	386.331	377.962	
684.868	1023.55	1.10626	449.911	396.839	399.64	396.489	387.737	376.884	377.584	379.177	
685.038	1016.8	0.940573	447.653	409.03	392.535	382.708	391.482	390.078	376.391	381.269	
685.209	1010.32	1.4394	452.966	415.594	398.041	396.987	389.615	379.434	385.753	381.031	
685.379	1004.86	4.94897	453.47	406.806	393.117	387.852	377.673	373.461	372.057	377.533	
685.55	1000.34	1.21565	451.663	398.593	390.16	385.242	391.917	374.35	385.242	378.777	
685.72	992.061	4.13385	450.702	410.313	393.792	393.792	379.731	372.7	383.949	378.676	
685.891	987.788	1.26848	451.608	404.744	391.355	395.231	389.945	380.079	378.67	379.093	
686.061	983.11	2.50526	449.873	412.769	396.232	386.38	387.435	386.38	365.972	379.184	
686.232	978.281	2.91814	450.514	403.182	386.265	384.151	393.667	385.208	374.635	382.089	
686.402	976.255	1.86693	452.359	415.993	396.546	393.363	391.242	382.049	385.231	380.776	
686.572	964.589	5.24744	447.943	403.431	398.487	394.25	388.247	387.894	380.125	379.048	
686.743	961.953	2.64033	447.944	408.639	397.725	395.613	377.659	372.73	366.393	374.737	
686.913	960.177	3.3684	449.911	410.194	414.086	390.026	389.319	374.104	376.581	381.198	
687.083	951.291	1.82401	450.636	406.132	396.587	381.741	381.387	382.448	369.015	377.959	
687.254	947.628	6.29264	450.921	410.554	398.139	397.075	381.822	381.822	381.113	378.541	
687.424	942.187	2.09054	447.421	409.206	381.923	394.325	373.774	379.088	385.112	377.937	
687.594	934.29	1.76774	449.762	410.875	395.257	383.898	377.863	371.829	368.279	377.171	
687.764	931.754	0.724592	450.696	402.212	400.081	391.912	385.874	381.256	375.573	376.834	
687.934	927.154	3.2274	447.565	409.68	394.719	390.444	394.006	378.689	385.813	379.027	
688.104	920.957	1.33202	448.252	407.098	396.77	380.743	386.797	379.318	368.99	376.38	
688.275	916.461	1.33522	451.765	417.224	391.877	389.735	376.168	378.31	382.237	378.221	
688.445	912.529	0.0356582	449.144	401.005	401.362	387.098	373.548	386.742	362.138	379.075	
688.615	907.829	4.31667	445.796	395.983	395.268	382.046	390.98	372.041	366.681	375.775	
688.785	902.904	0.729983	448.317	409.921	386.304	375.927	380.937	385.231	377.716	376.321	
688.955	899.976	-0.493965	448.42	411.373	389.18	399.561	384.527	378.8	375.578	375.578	
689.125	894.697	0.208191	449.161	416.605	399.016	388.247	386.812	382.504	359.173	377.084	
689.295	889.056	1.23545	445.925	406.348	399.165	387.313	371.152	384.081	370.793	374.689	
689.465	882.293	3.33372	443.223	414.718	385.979	390.289	380.59	369.454	365.143	374.968	
689.635	880.066	1.14535	447.053	400.23	393.747	389.785	380.061	375.739	382.942	375.432	
689.805	873.719	2.71886	442.294	404.792	388.926	387.484	380.272	378.83	369.454	370.68	
689.974	869.585	3.10251	446.089	407.543	395.61	380.061	367.767	373.914	376.807	373.39	
690.144	864.32	2.78035	443.383	407.778	388.59	384.97	375.195	383.884	365.059	374.888	
690.314	860.1	1.38622	442.675	402.105	389.041	381.783	381.42	379.243	376.34	373.074	
690.484	854.857	-0.210778	444.632	405.166	393.173	389.903	374.639	363.01	369.552	371.241	
690.654	847.688	2.97646	442.558	401.532	394.254	381.883	381.155	360.414	367.328	370.475	
690.823	845.674	0.189482	441.148	395.289	385.451	376.341	375.612	370.511	366.502	370.693	
690.993	843.448	2.41497	442.141	399.971	378.382	390.091	371.796	375.455	369.967	373.351	
691.163	839.556	-0.27871	443.52	393.92	402.722	388.053	369.35	370.817	375.951	373.164	
691.332	833.627	2.5107	444.846	402.983	388.667	391.971	378.39	376.921	374.719	372.388	
691.502	828.284	0.139682	443.549	403.666	397.05	393.006	377.2	365.805	367.643	373.414	
691.672	824.059	1.97468	443.621	408.935	401.567	378.357	377.252	364.357	368.41	371.984	
691.841	819.51	0.810878	441.98	403.169	395.428	384.371	379.579	364.836	372.945	369.296	
692.011	815.735	2.24421	439.301	413.23	383.604	384.715	383.233	372.864	369.161	371.346	
692.18	810.848	4.26954	442.309	396.866	391.669	386.471	372.734	390.926	370.878	370.414	
692.35	804.051	3.89069	439.113	399.501	396.902	377.597	370.544	370.544	369.801	370.822	
692.519	802.93	2.23342	439.56	406.356	394.072	388.117	375.461	366.899	367.644	370.473	
692.689	798.23	1.78766	441.858	392.941	380.599	388.827	374.615	375.363	371.623	369.361	
692.858	793.609	2.56242	438.935	404.682	386.379	383.018	360.232	364.715	366.956	368.73	
693.027	790.575	3.21842	437.36	390.434	394.185	370.178	379.556	365.302	358.925	371.022	
693.197	785.194	3.01865	439.334	393.829	387.821	377.684	383.316	375.056	358.912	367.153	
693.366	782.953	3.05208	438.629	399.498	379.151	383.673	381.035	369.731	374.253	370.278	
693.536	778.878	1.84144	438.365	396.235	383.028	370.953	376.236	374.726	364.915	368.594	
693.705	771.4	2.41941	437.091	386.555	375.25	387.309	371.104	375.25	368.843	368.542	
693.874	769.744	1.02152	437.291	400.46	380.408	367.544	382.299	368.679	364.896	369.909	
694.043	765.112	4.21246	437.382	396.662	380.343	381.102	373.512	376.548	372.374	370.078	
694.213	758.735	1.52458	434.768	385.144	396.142	376.8	361.251	382.868	368.457	368.608	
694.382	759.973	3.60289	435.549	408.508	376.067	381.028	379.883	357.747	373.014	367.27	
694.551	752.899	1.33847	436.722	404.408	387.199	372.667	362.342	365.401	357.371	367.141	
694.72	744.814	1.03535	435.966	402.681	379.29	370.47	371.621	362.034	374.305	367.038	
694.889	742.875	2.21286	435.422	395.833	385.076	388.534	362.025	368.941	365.099	365.906	
695.058	740.083	2.55966	434.4	381.042	387.615	388.388	368.282	352.816	366.735	366.001	
695.228	735.576	0.618768	434.131	396.754	376.257	390.18	375.097	360.788	358.854	363.302	
695.397	729.958	0.713811	433.059	399.54	378.592	377.816	358.031	370.833	359.195	364.839	
695.566	725.871	1.78268	428.381	388.173	389.73	378.832	362.095	355.867	361.316	363.554	
695.735	723.298	0.741796	429.27	396.455	388.256	376.544	367.954	367.564	357.413	363.113	
695.904	719.115	1.61059	428.786	397.59	383.908	373.744	364.753	356.934	359.671	362.173	
696.073	717.009	1.73409	430.026	391.244	394.775	368.489	363.781	353.581	364.566	363.055	
696.242	712.348	0.487048	430.645	392.31	385.24	365.993	366.779	362.066	362.851	359.807	
696.41	708.673	3.56982	431.423	390.532	367.629	378.291	370.788	369.603	364.075	362.89	
696.579	703.142	2.00237	428.745	403.142	395.227	377.024	363.174	370.297	350.51	363.075	
696.748	700.567	0.635709	429.02	388.315	377.19	375.998	363.284	361.297	368.449	361.377	
696.917	698.348	0.238721	425.963	395.267	384.524	371.793	359.857	376.169	354.684	361.826	
697.086	691.328	0.351475	428.245	375.783	372.189	370.99	368.195	359.008	351.02	361.125	
697.255	687.121	-1.31989	425.082	389.785	364.587	374.986	364.987	350.188	355.388	356.747	
697.423	685.772	0.731409	426.841	394.149	381.289	382.093	364.41	349.139	359.588	356.433	
697.592	680.96	1.11964	423.559	379.237	390.513	378.028	371.584	355.072	365.14	360.529	
697.761	677.589	2.40692	424.886	382.321	380.706	387.167	359.706	367.783	362.533	358.454	
697.929	675.093	0.421963	421.44	397.238	376.545	374.517	364.779	352.201	360.316	356.665	
698.098	671.324	1.66008	424.546	390.185	383.674	369.433	362.923	360.482	363.33	357.003	
698.267	668.963	0.595852	425.059	400.592	371.208	359.372	367.535	357.74	367.127	355.556	
698.435	661.885	1.5397	424.606	397.047	367.564	370.84	357.736	363.469	366.745	357.429	
698.604	661.437	2.15925	421.813	388.501	375.775	367.976	351.145	354.84	345.398	356.502	
698.772	655.017	3.50967	418.439	381.904	369.575	362.589	363	355.602	359.712	354.02	
698.941	650.975	1.90563	420.101	374.295	369.346	369.346	358.621	347.897	354.497	351.486	
699.109	647.423	0.132584	418.654	388.553	371.151	364.108	359.965	349.607	360.793	354.62	
699.278	645.673	2.71791	419.297	369.552	376.617	367.059	354.591	344.202	347.526	353.469	
699.446	641.576	-0.799659	416.431	374.865	360.704	366.535	359.039	355.29	345.294	352.333	
699.615	636.449	2.04592	416.854	396.834	367.606	356.75	351.322	353.41	337.126	353.577	
699.783	632.97	1.64203	416.071	380.298	372.758	363.124	363.543	356.003	345.95	349.343	
699.952	632.054	4.22427	414.164	385.316	363.061	368.52	354.663	353.823	348.364	352.584	
700.12	624.761	1.62332	411.946	379.269	373.381	368.334	373.802	346.045	343.943	350.861	
700.288	619.769	2.96588	414.564	377.995	362.451	358.67	350.268	346.488	343.547	348.084	
700.457	621.428	1.18475	410.369	387.583	376.159	350.771	345.271	343.155	350.348	349.692	
700.625	616.262	4.26191	410.459	377.264	364.954	356.039	364.529	348.823	347.125	350.733	
700.793	608.144	1.85011	408.009	390.06	366.297	353.567	362.478	351.445	346.353	349.663	
700.961	608.769	1.91686	408.142	367.952	359.007	358.581	349.209	353.043	335.578	346.206	
701.13	604.936	5.09629	409.302	377.194	362.657	353.679	350.259	344.273	347.266	349.81	
701.298	602.474	0.866091	409.803	378.053	372.05	366.477	351.899	348.898	343.752	346.218	
701.466	600.833	3.06359	408.791	374.412	361.933	359.352	350.316	341.71	348.595	345.432	
701.634	595.797	2.29004	407.562	382.875	357.048	353.604	352.313	345.856	346.286	345.447	
701.802	590.499	0.581157	404.073	374.386	358.773	357.906	353.135	330.583	337.522	344.006	
701.97	588.232	1.03429	402.282	390.831	360.845	350.85	349.111	337.813	335.64	343.375	
702.138	586.612	0.183406	404.603	367.878	355.651	353.468	347.354	334.254	338.184	341.874	
702.306	580.63	1.76811	404.073	371.206	364.641	352.825	349.761	351.949	320.001	339.761	
702.474	576.976	1.17668	401.581	356.973	348.191	359.168	350.387	334.141	357.851	345.952	
702.642	576.504	0.899383	397.444	363.342	372.159	347.911	355.847	338.653	338.653	339.072	
702.81	570.573	2.14335	396.895	363.797	361.591	343.51	341.305	322.341	345.274	336.85	
702.978	569.347	1.61819	400.255	365.349	356.506	348.106	347.222	327.768	334.842	341.054	
703.146	562.273	1.937	399.156	372.278	354.952	351.842	330.517	336.292	324.741	337.447	
703.314	563.137	1.62267	399.052	361.695	350.104	357.237	334.501	327.815	334.501	336.24	
703.482	559.76	2.16632	398.781	367.719	353.396	350.71	335.94	344.444	344.892	339.319	
703.65	552.201	1.49376	396.402	372.699	354.809	341.392	346.312	334.684	344.076	334.863	
703.818	554.018	5.24751	394.663	373.745	336.328	353.459	340.836	343.991	345.795	337.522	
703.985	548.81	1.44452	392.341	371.937	340.79	349.367	341.693	334.921	338.081	333.048	
704.153	545.439	4.01625	393.638	351.889	355.968	352.342	333.303	334.21	336.93	334.459	
704.321	544.049	0.636124	391.698	365.844	346.76	343.579	347.669	333.129	346.76	331.925	
704.488	537.418	3.44241	389.061	368.904	346.989	346.533	325.988	341.511	321.879	331.489	
704.656	537.937	3.40333	388.401	370.195	335.887	342.748	327.653	323.536	315.76	330.077	
704.824	534.601	4.94967	387.507	356.422	343.566	350.912	334.383	336.679	321.986	328.781	
704.991	530.102	3.88512	387.359	365.995	347.077	344.309	339.233	333.235	334.619	331.274	
705.159	528.349	4.00264	387.515	358.839	360.229	349.574	335.212	331.043	329.653	331.599	
705.327	523.36	4.79246	383.693	347.634	363.392	343.926	331.875	338.828	334.193	330.323	
705.494	522.091	6.29496	382.286	351.021	349.161	345.907	339.863	324.986	331.959	332.354	
705.662	519.717	4.90554	383.854	351.585	347.855	333.399	330.602	327.338	313.815	326.545	
705.829	513.356	5.81362	382.792	354.098	346.621	338.209	319.516	322.32	329.797	326.853	
705.997	514.693	5.21284	383.969	342.154	346.373	331.372	314.496	329.028	321.059	326.778	
706.164	508.263	5.23274	380.715	355.61	351.845	341.493	323.611	314.67	319.846	326.034	
706.332	506.729	7.50249	374.163	358.093	337.829	344.898	329.346	334.059	307.668	322.207	
706.499	502.775	7.35301	381.327	347.243	343.922	344.871	334.908	328.267	331.588	323.689	
706.666	502.984	7.32459	375.008	344.56	337.91	332.685	331.735	328.885	321.285	323.707	
706.834	500.093	5.80638	377.448	346.721	351.973	335.738	343.856	318.071	324.278	324.231	
707.001	494.755	3.86804	370.552	343.624	332.613	322.081	317.294	326.869	321.124	319.832	
707.168	491.642	5.62581	373.649	349.783	336.296	330.998	330.516	314.622	318.957	322.28	
707.336	489.516	4.96754	372.4	355.955	335.095	320.057	328.789	341.402	316.176	319.79	
707.503	488.056	8.78758	373.545	344.01	326.007	331.846	322.601	315.302	307.517	320.606	
707.67	487.227	7.12181	374.257	343.148	343.637	314.778	330.919	322.115	319.18	317.59	
707.837	481.709	9.2322	371.491	334.63	333.162	329.246	322.393	315.05	317.987	319.725	
708.004	478.13	7.49029	366.528	339.815	338.341	321.139	314.75	315.241	304.92	315.241	
708.172	475.524	12.63	366.295	347.34	339.453	330.579	318.255	308.888	307.902	314.237	
708.339	471.901	4.39715	368.152	335.669	340.125	322.794	320.318	319.823	303.482	314.946	
708.506	472.518	5.19294	365.17	344.239	336.265	311.347	328.292	311.846	316.331	314.238	
708.673	466.403	7.82294	363.976	339.929	329.452	315.482	319.473	316.48	321.968	313.287	
708.84	463.821	7.74188	362.951	330.434	323.915	321.91	310.879	317.397	323.915	314.238	
709.007	464.18	4.57773	364.803	342.269	329.637	317.005	301.342	315.489	311.952	312.761	
709.174	462.16	5.77599	359.446	340.134	321.354	324.399	317.801	311.71	308.665	313.385	
709.341	459.093	4.42482	360.15	345.96	324.09	321.039	319.004	307.306	308.323	306.009	
709.508	457.48	6.86538	361.037	319.742	330.502	316.156	308.983	323.329	301.298	309.163	
709.675	454.952	3.67603	358.475	343.518	328.588	322.924	307.994	311.598	306.964	307.221	
709.842	449.684	4.0178	357.724	329.914	314.421	309.774	321.135	306.159	318.553	310.884	
710.009	449.24	3.39586	359.421	345.401	327.228	328.266	315.285	316.843	295.034	305.575	
710.175	443.889	2.21177	354.145	321.698	321.698	302.919	320.655	301.876	307.614	308.683	
710.342	443.915	5.64094	356.36	331.956	330.383	318.849	309.413	304.695	300.501	303.069	
710.509	442.214	5.0644	354.777	319.952	324.164	311.003	303.106	305.738	307.318	309.66	
710.676	437.168	4.12493	353.866	327.9	321.025	315.208	319.968	305.689	303.045	305.504	
710.843	438.257	5.22583	352.387	334.613	318.116	306.408	301.619	302.151	303.215	304.812	
711.009	435.835	7.08197	350.178	333.889	320.002	305.582	311.457	305.048	302.378	303.633	
711.176	433.65	5.44944	352.496	337.93	308.313	329.853	313.16	297.005	306.159	305.729	
711.343	430.838	6.87186	346.092	328.374	319.757	301.446	307.37	299.831	288.521	299.831	
711.509	428.707	3.61902	349.148	327.114	317.876	310.268	299.944	302.661	296.683	298.993	
711.676	424.232	4.07822	347.562	323.473	311.51	300.635	312.054	301.723	289.216	298.65	
711.843	426.784	4.25556	349.077	323.137	330.267	314.911	309.428	297.363	291.879	299.364	
712.009	420.124	5.17434	343.29	328.097	314.886	310.483	308.281	306.079	296.171	300.739	
712.176	417.216	6.94511	347.151	310.904	311.457	301.504	312.01	303.716	293.763	299.237	
712.342	416.385	4.49121	345.163	314.64	314.085	293.57	305.214	298.005	297.451	293.958	
712.509	413.472	5.53017	342.692	315.82	318.046	306.362	291.897	303.581	294.679	299.241	
712.675	414.394	2.87057	340.169	310.314	310.874	306.389	298.54	300.222	306.389	291.924	
712.842	408.558	1.17191	339.331	294.736	320.09	312.202	293.609	277.834	282.904	294.398	
713.008	404.719	3.97833	338.722	298.657	304.292	308.8	296.966	301.474	282.315	293.81	
713.174	406.321	1.60444	338.064	323.641	306.572	306.004	294.056	291.78	296.9	294.881	
713.341	402.663	-0.411242	336.847	319.283	302.72	300.435	285.585	294.723	287.298	290.982	
713.507	398.817	2.97282	337.231	325.437	307.073	312.812	292.725	285.264	293.873	290.515	
713.673	398.538	0.842624	335.907	311.609	304.107	297.758	285.638	297.181	283.907	287.37	
713.84	394.995	2.61986	333.272	308.61	298.756	299.915	299.915	297.017	284.266	289.946	
714.006	394.143	-0.361803	329.772	322.565	299.223	299.223	291.636	299.806	275.297	286.589	
714.172	389.762	1.71164	330.441	298.67	296.325	281.671	295.153	279.912	302.187	286.36	
714.339	385.42	2.93963	329.532	316.362	294.609	292.845	275.796	298.137	293.433	285.937	
714.505	387.302	3.97433	330.641	313.735	300.685	292.974	279.924	284.669	278.737	288.05	
714.671	382.52	0.201939	324.172	313.837	293.643	309.086	287.704	282.359	284.14	283.576	
714.837	384.827	4.43912	326.437	299.395	304.78	297.6	289.225	278.456	290.421	283.332	
715.003	380.703	-1.94322	324.977	310.614	297.941	307.597	288.889	281.647	285.268	286.505	
715.169	379.531	2.35681	321.977	298.953	303.787	286.866	287.471	283.845	282.636	280.4	
715.335	375.116	3.901	325.156	302.127	301.519	275.391	291.797	290.582	270.53	279.341	
715.501	372.674	0.637238	322.443	309.698	280.287	291.929	291.929	279.061	291.929	282.799	
715.667	371.803	1.94012	324.448	304.832	291.325	278.432	290.097	284.571	278.432	279.414	
715.833	372.8	5.23276	321.456	301.261	304.972	301.261	295.694	277.139	293.22	280.386	
715.999	370.678	4.34842	319.978	321.508	297.142	290.894	275.275	287.77	278.399	280.617	
716.165	366.921	3.02225	315.599	284.342	286.223	291.239	278.072	276.818	269.92	274.153	
716.331	361.383	2.18217	317.544	306.791	287.24	283.456	273.995	282.194	272.734	276.739	
716.497	364.034	3.54727	317.462	299.153	295.975	292.796	273.725	286.439	273.089	277.444	
716.663	361.55	1.44257	313.664	289.919	296.302	287.366	284.813	270.77	272.046	275.429	
716.829	359.164	2.18493	314.578	282.447	275.378	274.735	279.234	266.381	272.165	272.101	
716.995	355.848	3.41002	312.542	292.121	285.638	267.486	284.99	286.934	277.21	269.431	
717.161	354.516	5.64296	315.348	307.496	286.644	282.734	270.354	267.096	281.431	275.241	
717.326	350.709	-0.613926	310.438	293.065	287.187	271.512	274.778	264.981	257.144	271.218	
717.492	353.692	2.68997	311.206	298.284	290.372	289.713	275.208	272.571	270.593	270.889	
717.658	347.06	3.28077	311.858	301.606	284.408	277.132	260.596	272.502	269.195	268.434	
717.823	346.034	1.9374	308.695	296.035	279.333	282.674	265.304	267.976	288.686	271.684	
717.989	343.287	1.28869	303.278	285.793	277.739	268.342	273.712	264.315	273.712	265.792	
718.155	341.532	0.377831	302.535	298.419	274.805	289.648	272.106	245.118	266.033	266.843	
718.32	342.249	-2.16888	305.507	289.816	275.583	276.938	269.483	271.516	271.516	269.415	
718.486	342.648	1.58938	303.448	284.54	280.429	267.413	272.894	270.838	251.656	266.214	
718.651	340.684	3.7131	303.416	281	276.186	263.122	281.687	258.308	241.118	262.09	
718.817	334.175	1.71848	302.91	276.024	271.866	280.181	262.858	253.85	265.63	264.867	
718.983	335.872	2.73816	300.478	279.208	285.495	268.032	272.223	269.429	258.952	262.549	
719.148	332.249	6.75933	299.657	279.907	270.049	273.57	282.019	271.458	261.6	262.656	
719.314	330.66	1.99927	298.799	272.426	266.754	278.097	258.247	257.538	253.993	260.763	
719.479	327.924	-0.128246	295.792	280.758	267.934	278.621	260.096	269.359	265.796	262.661	
719.644	326.654	4.90907	296.109	279.674	272.497	263.884	264.602	258.86	250.248	259.147	
719.81	325.071	4.15261	296.522	276.985	268.333	272.659	248.868	251.031	246.705	257.447	
719.975	321.859	1.66917	289.31	264.309	262.858	259.229	264.309	259.229	257.052	257.886	
720.141	322.354	-0.908286	294.336	273.716	275.181	268.589	259.067	230.5	245.882	254.818	
720.306	321.802	2.8094	293.2	280.882	272.056	276.469	255.141	269.85	264.702	255.729	
720.471	316.356	0.532511	290.655	273.163	262.809	271.684	259.111	264.288	245.798	254.452	
720.636	315.255	2.53026	291.232	283.865	258.562	260.795	246.655	264.516	244.423	254.358	
720.802	314.544	3.27713	287.17	274.617	274.617	258.081	261.84	232.526	251.317	252.106	
720.967	313.192	3.20989	286.384	269.086	269.843	261.515	258.487	253.188	253.945	251.447	
721.132	310.698	1.97085	283.674	282.727	253.164	262.26	267.566	253.164	262.26	251.799	
721.297	307.385	5.44288	281.424	271.41	267.588	260.708	257.65	253.828	243.125	247.062	
721.462	311.08	2.37243	279.7	262.138	264.448	280.624	234.408	239.03	242.881	245.153	
721.628	306.38	0.293497	279.255	261.877	281.958	244.112	249.519	241.023	251.064	244.692	
721.793	306.71	2.56785	280.394	256.272	264.053	250.047	240.709	258.606	247.712	248.529	
721.958	301.886	-1.3621	279.427	267.098	260.052	254.572	240.482	253.007	233.436	244.748	
722.123	301.036	0.883544	278.23	265.805	267.383	259.494	251.605	235.039	245.294	242.296	
722.288	299.838	-1.01543	277.665	258.983	259.776	253.43	245.496	243.91	235.977	243.87	
722.453	295.193	-0.415764	274.58	263.307	256.111	252.913	247.316	235.323	254.512	245.597	
722.618	295.287	7.38297	276.557	262.352	239.882	259.945	243.092	239.08	237.475	240.725	
722.783	295.028	-0.485669	276.256	256.789	250.314	245.457	238.172	232.506	233.315	242.381	
722.948	290.628	-0.456194	271.59	252.731	251.102	242.956	234.81	236.439	243.77	240.268	
723.112	290.61	1.73371	276.617	273.305	252.861	253.678	247.954	236.505	244.683	239.694	
723.277	289.207	0.840047	272.727	251.685	246.743	252.508	226.154	236.037	241.802	239.208	
723.442	287.921	1.74186	270.9	262.357	249.086	244.938	227.52	232.497	222.543	235.192	
723.607	284.001	-0.982126	266.348	251.574	256.568	234.928	221.611	241.586	223.275	236.01	
723.772	284.394	6.18212	267.833	237.802	252.043	239.477	226.912	226.074	241.99	236.294	
723.937	279.84	5.84505	263.43	265.614	239.58	242.939	233.701	236.221	237.06	230.258	
724.101	284.335	1.50836	265.751	245.287	247.829	256.303	254.608	210.544	254.608	234.271	
724.266	281.819	-1.05385	262.238	253.569	240.821	253.569	222.124	234.872	251.019	231.77	
724.431	278.415	5.63975	265.111	253.361	256.779	246.525	245.671	226.872	240.544	232.939	
724.595	278.254	2.56416	261.26	249.773	252.354	248.052	224.82	242.889	234.285	232.349	
724.76	277.003	4.35029	259.489	246.326	237.695	235.105	238.558	216.116	235.105	233.854	
724.925	275.036	-2.78007	259.476	244.316	227.809	251.266	246.053	232.153	229.547	223.987	
725.089	273.422	6.01564	261.522	239.38	234.119	244.642	236.749	227.103	234.996	232.277	
725.254	270.479	-1.12385	258.591	247.44	221.978	234.27	235.148	230.758	236.026	231.636	
725.418	271.562	4.25253	256.122	236.359	234.595	232.83	227.537	233.713	233.713	226.213	
725.583	270.076	3.08314	259.764	249.221	222.642	254.537	242.133	249.221	230.616	231.635	
725.747	262.773	0.748642	254.467	243.594	240.029	242.702	242.702	214.183	213.292	226.526	
725.912	265.718	5.99337	253.686	222.419	217.933	231.391	205.372	237.671	224.213	227.578	
726.076	265.992	4.76662	253.651	234.738	253.696	234.738	241.96	227.516	233.835	224.762	
726.241	261.794	-0.198835	249.222	235.168	241.494	227.937	220.707	226.13	212.573	221.746	
726.405	260.422	5.98817	252.905	242.639	232.688	246.257	227.261	218.216	244.448	224.05	
726.57	261.791	-2.3897	251.894	243.822	251.119	222.844	207.338	232.877	216.459	222.023	
726.734	260.858	3.22908	253.932	248.933	227.834	238.842	235.172	225.081	219.577	223.797	
726.898	258.04	1.69509	249.776	227.436	208.09	231.121	228.357	212.696	208.09	215.829	
727.062	257.708	17.1978	255.38	227.025	243.65	258.428	237.185	226.102	233.491	228.78	
727.227	255.399	-0.297777	244.689	241.571	216.446	227.613	220.169	226.682	224.821	219.471	
727.391	254.06	-0.974413	248.185	222.279	238.207	235.396	233.522	211.972	208.225	218.203	
727.555	250.528	1.78412	238.433	242.095	226.132	240.217	211.108	197.962	204.535	210.826	
727.719	250.148	-2.2227	243.998	219.652	231.895	224.361	225.303	215.884	215.884	216.732	
727.884	245.969	-0.603373	237.342	237.861	226.548	206.749	213.349	216.177	200.15	207.315	
728.048	247.465	0.718332	243.439	231.057	218.77	244.289	219.715	210.263	199.866	211.681	
728.212	246.804	0.493949	242.823	228.527	236.127	219.978	220.928	230.427	219.028	216.986	
728.376	245.567	6.06385	238.597	221.579	208.23	213.951	211.091	193.929	212.998	214.857	
728.54	242.423	0.382129	240.369	230.194	210.133	206.311	212.043	235.926	212.043	213.094	
728.704	243.904	-0.11523	234.849	217.516	225.198	217.516	205.033	213.675	209.834	213.099	
728.868	238.624	0.423571	232.743	208.724	234.716	205.836	222.201	230.865	197.172	210.986	
729.032	239.621	3.25014	239.021	213.871	211.937	209.035	214.838	229.348	201.296	215.322	
729.196	239.436	3.71729	233.105	229.717	232.621	221.973	209.388	197.772	200.676	208.856	
729.36	234.844	6.26122	232.188	226.858	215.227	212.319	207.473	193.904	230.735	206.843	
729.524	233.6	-0.116412	233.978	217.535	213.655	201.044	209.774	221.416	208.804	204.681	
729.688	238.142	-1.01645	231.35	219.279	220.257	210.483	196.8	215.37	213.415	207.307	
729.852	229.136	-0.195609	229.224	219.982	211.179	212.157	186.728	197.487	211.179	202.67	
730.015	230.143	1.2968	230.065	240.282	224.563	220.633	208.844	200.002	217.686	204.718	
730.179	234.822	2.02112	225.296	213.375	223.186	202.583	185.904	213.375	211.413	206.802	
730.343	234.607	6.17075	227.253	223.31	223.31	212.467	202.61	207.538	214.439	208.573	
730.507	226.996	4.84436	226.691	224.377	207.638	199.761	197.792	215.515	199.761	200.746	
730.671	228.886	-0.835133	230.805	210.275	206.298	217.234	206.298	195.361	212.263	203.961	
730.834	225.024	0.792269	225.717	235.225	199.573	210.466	197.592	195.611	211.457	203.732	
730.998	222.843	2.88585	227.567	224.8	204.045	215.905	211.952	218.87	196.139	198.017	
731.162	220.076	8.8451	219.66	202.307	192.391	200.324	191.399	210.24	206.273	199.183	
731.325	221.854	-1.41169	224.737	217.679	211.714	191.831	202.767	196.802	202.767	196.305	
731.489	219.609	6.4176	222.431	231.371	204.549	202.562	182.693	196.601	195.608	198.29	
731.652	221.909	2.47865	220.59	201.603	200.612	208.544	204.578	204.578	199.621	197.092	
731.816	215.73	-0.418197	215.202	218.936	208.979	202.009	205.992	203.005	200.018	197.877	
731.98	212.085	1.66357	218.848	206.916	216.818	207.906	188.102	195.033	197.014	193.003	
732.143	217.163	1.43565	219.346	207.931	210.922	194.97	191.979	208.928	206.934	197.263	
732.307	211.666	4.54193	219.52	206.926	208.909	216.842	198	187.092	198	193.835	
732.47	215.023	-6.7816	214.933	213.988	196.09	178.191	183.163	205.039	190.124	191.565	
732.633	212.872	5.64652	212.802	208.163	193.199	182.225	212.153	194.196	199.184	194.845	
732.797	211.298	5.9726	215.293	203.807	199.812	199.812	186.828	196.816	181.835	194.169	
732.96	208.855	6.75392	213.623	186.408	191.374	192.368	190.381	183.429	202.3	191.126	
733.124	208.763	-9.53674e-09	210.648	199.931	185.975	185.975	195.944	202.922	189.963	193.751	
733.287	203.878	5.8627	208.694	203.46	204.457	207.448	204.457	191.495	205.454	191.944	
733.45	208.758	2.38285	209.482	195.831	182.924	192.852	191.859	204.766	185.902	186.349	
733.614	205.977	4.42619	211.889	189.21	194.194	185.222	198.182	193.197	201.172	189.359	
733.777	201.831	-1.21465	211.439	198.745	178.832	193.767	218.657	191.775	196.753	190.381	
733.94	203.552	3.68717	208.235	184.119	175.15	177.144	202.057	178.14	187.109	188.504	
734.103	200.29	6.34485	206.924	200.41	207.371	193.448	182.509	184.498	179.525	182.012	
734.266	201.711	0.519358	206.435	186.809	198.794	195.798	206.785	189.805	210.78	183.314	
734.43	201.064	0.836852	207.659	204.57	193.612	199.589	205.567	200.585	202.578	185.243	
734.593	197.84	-0.78	206.08	192.68	192.68	201.68	184.68	204.68	196.68	186.13	
734.756	197.578	2.01712	204.518	218.548	188.591	186.593	172.613	191.586	193.583	184.996	
734.919	198.692	4.90352	205.978	191.975	185.995	189.981	181.012	177.025	184.002	182.756	
735.082	194.699	0.95597	204.159	200.873	192.907	175.978	175.978	206.848	167.016	179.812	
735.245	194.134	4.7534	206.922	189.122	171.222	181.166	193.1	178.183	179.177	184.945	
735.408	191.57	5.75191	201.746	183.422	189.414	172.437	172.437	178.429	190.412	181.225	
735.571	191.304	5.28739	203.086	193.359	189.368	200.342	176.399	181.387	182.385	182.186	
735.734	191.785	-0.337895	198.225	184.61	179.641	187.591	183.616	187.591	180.635	178.051	
735.897	189.113	2.20268	200.166	178.536	197.388	190.443	182.505	197.388	189.451	176.899	
736.06	187.999	2.31389	195.089	186.733	162.012	178.823	178.823	189.7	170.912	176.845	
736.223	186.991	4.96139	201.253	192.308	188.355	173.53	179.46	174.518	157.717	177.335	
736.386	185.85	0.474561	194.629	183.754	184.743	188.697	178.811	180.788	160.026	175.894	
736.549	184.827	-4.71992	195.245	181.174	193.023	190.061	172.287	181.174	189.073	179.347	
736.711	184.659	4.4558	198.027	189.352	177.522	155.835	183.437	172.593	168.65	176.832	
736.874	183.414	0.470746	189.475	183.689	185.65	176.824	189.573	162.113	178.785	173.735	
737.037	184.33	3.36254	191.468	190.092	182.226	182.226	183.209	178.293	178.293	175.049	
737.2	178.634	-0.705984	191.351	163.259	173.064	176.986	169.142	171.103	158.356	173.799	
737.362	174.741	-2.6766	190.049	173.1	194.591	179.938	186.776	174.077	173.1	170.902	
737.525	181.914	2.64432	194.202	173.786	177.675	180.592	187.397	176.703	177.675	175.293	
737.688	175.565	5.31956	186.806	165.45	188.747	166.421	163.509	167.391	168.362	168.896	
737.85	178.377	1.32666	185.478	181.772	174.943	177.87	183.722	151.532	174.943	170.163	
738.013	173.653	5.69356	184.74	190.018	182.271	162.905	169.683	176.462	165.81	169.248	
738.176	173.422	-1.79762	185.851	169.904	158.307	181.502	169.904	174.737	164.105	173.142	
738.338	173.685	0.307953	184.3	179.633	161.348	175.783	160.386	175.783	152.687	165.438	
738.501	170.725	6.29463	187.106	160.061	182.198	181.235	161.986	157.173	160.061	163.044	
738.663	170.408	-0.745976	184.954	200.878	188.445	190.358	175.056	165.492	184.619	166.544	
738.826	171.291	2.83	186.617	174.523	183.128	169.743	173.567	163.05	156.357	166.253	
738.988	167.947	-1.39367	182.237	180.948	164.72	172.357	161.857	167.584	137.992	160.902	
739.151	172.228	1.47302	185.466	178.101	173.319	171.406	167.579	164.71	178.101	166.575	
739.313	167.671	3.02162	180.204	179.302	181.202	179.302	151.746	175.501	155.547	161.58	
739.475	165.466	3.14668	180.792	166.338	176.764	158.756	161.599	153.069	170.129	162.974	
739.638	165.169	1.20685	176.973	185.365	175.936	158.965	158.965	180.65	172.165	164.245	
739.8	160.847	4.95872	184.076	170.972	193.598	164.373	153.061	151.175	175.686	161.074	
739.962	162.225	0.561202	179.266	181.511	173.093	166.546	145.033	169.352	172.158	161.869	
740.125	165.626	8.81643	181.456	175.058	172.257	178.794	171.323	161.983	153.578	165.345	
740.287	160.06	1.75071	178.163	168.757	172.482	175.276	183.657	138.027	164.101	157.117	
740.449	161.422	1.85074	173.766	157.11	144.154	174.692	179.319	148.781	139.528	159.886	
740.611	158.417	7.46678	174.754	165.076	177.001	165.994	166.911	155.903	157.738	152.876	
740.774	160.303	-3.99654	177.809	178.868	168.739	152.163	152.163	156.767	182.551	157.964	
740.936	155.724	2.11176	174.484	164.699	151.955	178.352	156.507	147.404	159.237	157.189	
741.098	156.129	2.52826	174.423	165.033	150.377	160.453	150.377	165.033	152.209	158.117	
741.26	151.834	4.68746	171.946	177.488	142.968	168.403	157.502	165.678	171.129	157.457	
741.422	153.552	9.66502	169.31	157.342	169.129	160.062	166.409	170.942	172.755	154.169	
741.584	152.307	12.5434	172.368	171.691	156.35	156.35	144.619	159.96	156.35	153.417	
741.746	150.369	-1.97902	169.323	173.236	160.642	150.747	173.236	152.546	168.738	152.186	
741.908	148.59	0.215244	168.474	160.447	155.963	164.931	157.756	156.859	129.954	154.438	
742.07	151.016	4.39644	170.326	155.806	160.274	164.742	150.444	136.147	156.699	154.644	
742.232	149.722	-0.302865	165.088	170.922	169.141	144.199	147.762	153.998	140.636	147.584	
742.394	146.695	1.89203	166.95	169.47	150.019	160.628	160.628	150.019	157.092	151.61	
742.556	146.086	5.60922	169.068	164.672	153.242	156.759	147.967	171.705	151.484	150.253	
742.718	144.304	-0.420967	166.817	154.407	145.637	159.669	131.605	149.145	159.669	148.926	
742.88	147.077	-0.488108	165.111	159.315	152.342	161.058	154.085	136.653	151.47	149.945	
743.042	141.744	7.95748	163.354	136.699	166.171	160.103	137.566	148.834	143.633	150.265	
743.203	141.263	1.95765	164.928	153.407	148.21	156.872	148.21	143.012	144.745	145.221	
743.365	142.882	0.729523	162.883	174.999	149.813	167.182	133.312	143.733	161.103	148.727	
743.527	141.313	4.35683	157.862	153.729	155.451	139.952	141.674	157.173	156.312	145.075	
743.689	143.392	3.10194	161.361	146.322	140.324	146.322	136.897	132.612	154.034	143.709	
743.85	139.066	-1.77175	160.395	155.88	144.807	166.954	144.807	154.177	137.992	143.742	
744.012	140.147	2.66187	156.118	161.204	167.986	148.488	155.27	135.772	152.727	145.903	
744.174	139.456	-2.89054	162.107	147.231	157.374	134.554	132.863	165.825	143.851	143.048	
744.335	134.549	4.52892	157.692	144.723	151.482	153.172	142.188	138.808	133.738	144.3	
744.497	138.414	3.71874	159.127	144.763	156.489	159.001	137.225	142.25	136.387	144.302	
744.658	135.949	5.91011	157.142	145.156	148.485	136.832	131.005	134.334	149.318	139.828	
744.82	137.294	0.0995487	153.33	155.86	146.735	141.757	125.995	136.78	134.291	142.048	
744.982	135.28	5.57531	152.353	144.908	134.155	146.563	149.872	128.364	148.217	139.656	
745.143	130.523	2.49639	154.627	148.345	159.091	138.426	139.252	157.438	130.986	141.36	
745.305	134.755	3.65405	153.157	153.651	139.66	137.191	145.421	144.598	144.598	139.084	
745.466	131.417	-1.88394	151.665	149.863	137.577	137.577	146.587	134.3	137.577	135.529	
745.627	132.557	2.93846	152.816	136.655	158.693	152.98	135.022	148.082	145.634	139.308	
745.789	129.219	-3.02856	154.799	136.725	151.379	145.68	129.398	141.61	122.071	134.16	
745.95	133.635	1.49658	153.326	136.612	148.812	143.119	125.225	140.679	137.425	138.239	
746.112	129.795	4.98093	150.131	151.466	143.38	144.997	140.954	140.954	127.208	137.8	
746.273	129.462	0.726498	145.986	142.555	150.627	147.398	147.398	126.411	142.555	133.03	
746.434	126.678	6.21587	146.298	131.802	139.833	130.999	134.211	129.393	144.651	132.605	
746.596	127.875	5.34753	147.828	153.408	137.35	133.335	126.911	136.547	140.561	134.74	
746.757	126.222	-0.0319106	146.294	131.695	126.111	144.459	131.695	146.055	139.673	133.251	
746.918	125.466	3.89439	145.433	143.677	150.062	141.283	140.485	136.495	142.879	134.699	
747.079	125.337	-2.723	144.097	135.548	128.424	135.548	124.466	132.382	120.508	131.155	
747.24	124.387	3.03692	146.65	137.12	124.466	143.447	133.166	133.957	127.63	132.019	
747.402	121.196	1.62584	142.135	149.988	135.781	136.57	125.521	134.203	130.257	130.138	
747.563	121.777	1.83916	141.089	147.023	135.233	147.809	136.805	135.233	125.016	132.993	
747.724	122.295	2.79898	142.122	152.833	137.197	129.378	126.251	134.069	122.342	131.88	
747.885	122.066	2.76288	142.296	131.604	134.726	134.726	123.019	130.043	135.506	128.053	
748.046	117.541	-0.465447	138.036	124.538	139.277	126.09	129.193	137.726	108.247	125.741	
748.207	119.381	-0.699592	141.838	137.291	137.291	145.842	126.408	135.736	133.404	127.302	
748.368	118.971	1.29904	140.065	140.838	134.652	127.693	118.414	132.332	121.507	127.035	
748.529	119.301	5.59705	140.908	130.974	137.159	137.159	130.974	116.286	140.251	127.186	
748.69	117.773	4.18531	135.869	130.329	139.562	114.173	130.329	125.713	127.252	123.674	
748.851	118.401	-0.107275	138.752	134.385	135.917	130.553	122.125	121.358	130.553	128.638	
749.012	116.215	0.703682	138.411	141.241	142.771	135.887	124.414	114.471	132.063	126.059	
749.173	118.804	1.2185	135.307	142.123	128.414	120.799	147.453	122.322	124.607	126.472	
749.334	113.773	0.877974	133.376	146.395	125.959	145.638	135.798	132.014	119.904	122.667	
749.494	112.939	0.0301934	140.951	131.327	135.856	145.668	125.288	126.043	134.346	125.929	
749.655	112.106	-1.17184	135.408	128.121	134.882	117.605	115.351	133.379	126.619	126.018	
749.816	112.948	3.89321	136.36	121.947	117.455	145.906	127.188	117.455	125.691	123.969	
749.977	111.094	-0.0446999	131.626	121.643	140.268	134.308	116.428	126.113	107.488	121.867	
750.137	111.775	2.55759	135.322	129.188	127.701	123.983	118.036	125.47	132.162	123.389	
750.298	111.243	-0.282118	130.977	132.907	129.195	112.12	131.422	124.741	110.635	120.063	
750.459	109.946	3.02944	132.002	123.468	134.551	132.335	123.468	131.596	124.207	121.325	
750.62	108.447	0.590186	134.622	125.769	121.342	125.769	116.916	122.08	125.031	122.596	
750.78	106.714	3.40872	133.322	114.075	126.564	136.114	124.36	122.156	114.075	122.67	
750.941	107.428	2.2053	128.429	145.814	117.881	125.232	120.086	120.086	116.41	116.08	
751.101	107.432	1.00909	128.44	133.302	128.184	141.346	110.634	106.978	128.184	117.8	
751.262	105.617	1.22286	126.391	123.406	128.502	124.134	114.672	124.862	113.944	115.036	
751.422	106.028	2.37496	126.835	119.622	138.564	125.45	118.894	115.98	138.564	116.053	
751.583	104.667	7.4762	128.863	124.154	117.634	122.705	116.185	124.879	104.594	118.25	
751.743	105.367	0.926943	128.476	127.136	127.86	122.791	114.825	118.446	112.653	115.911	
751.904	101.885	-2.21677	126.586	133.136	123.06	115.862	107.226	110.824	117.302	113.631	
752.064	104.199	2.38028	127.273	130.699	130.699	129.978	109.782	101.847	106.175	114.506	
752.225	101.426	2.0406	122.458	131.619	127.308	117.248	117.967	111.5	114.374	113.189	
752.385	101.595	7.33351	128.122	127.692	131.273	122.679	114.801	114.085	115.517	116.376	
752.545	101.794	1.08595	120.727	135.587	112.725	118.44	114.154	112.725	129.157	113.261	
752.706	100.463	6.90587	123.214	132.453	118.898	127.459	121.752	106.056	111.764	114.796	
752.866	99.4177	1.84923	123.628	115.876	118.721	115.876	97.3835	102.362	110.897	111.644	
753.026	100.645	5.34728	122.227	118.138	107.472	125.249	116.005	103.916	121.693	111.845	
753.187	98.9557	-0.425189	120.91	124.524	118.146	111.059	110.351	110.351	114.603	109.465	
753.347	98.6843	2.84421	122.372	112.962	115.085	126.405	107.302	103.764	108.009	112.714	
753.507	97.8738	4.37291	121.352	113.922	122.413	119.583	116.045	109.676	111.799	110.136	
753.667	96.5818	3.1936	120.759	120.02	115.8	121.427	106.655	105.952	122.131	108.273	
753.827	95.3556	-1.39154	118.745	109.538	115.863	122.188	113.052	115.16	114.458	109.995	
753.988	96.6179	3.87314	118.467	112.433	99.8034	115.941	108.925	95.5935	106.118	106.75	
754.148	95.1482	3.05258	117.307	110.411	119.513	106.91	112.512	114.612	103.41	108.346	
754.308	94.7659	-1.39505	117.087	123.992	116.319	130.27	103.066	113.529	103.764	106.973	
754.468	94.8447	-0.390078	118.173	117.929	117.929	109.57	100.515	112.356	99.8182	106.505	
754.628	92.3664	0.98691	120.035	110.617	112.007	123.822	96.0222	96.7172	109.922	107.003	
754.788	94.6655	3.59454	117.267	116.399	117.093	108.072	107.378	108.766	108.766	107.135	
754.948	91.6801	3.07308	116.991	103.529	118.756	114.604	100.761	102.145	109.066	105.606	
755.108	91.2925	2.00993	113.838	113.18	118.725	102.784	103.477	107.635	101.398	104.378	
755.268	92.3247	3.06225	116.088	119.067	113.525	108.675	102.44	96.8972	108.675	106.493	
755.428	91.2454	-0.470266	114.447	117.594	116.211	108.604	97.5386	103.071	112.062	102.656	
755.587	90.3657	2.41067	113.687	114.238	105.284	109.417	93.5753	100.463	103.907	101.531	
755.747	89.1821	2.12141	113.62	120.507	110.176	97.0892	108.109	101.222	92.2678	99.3277	
755.907	87.6615	4.41194	112.532	107.618	122.05	110.367	109.68	100.746	100.059	98.2035	
756.067	87.8012	0.219812	111.926	104.37	102.309	107.804	101.622	99.5612	90.6313	101.656	
756.227	88.3811	2.84835	111.996	105.594	108.333	110.387	99.4321	99.4321	94.6392	101.212	
756.386	89.6152	1.53563	105.417	107.165	97.5676	107.165	95.511	103.052	102.366	99.3843	
756.546	86.2289	1.88882	108.498	108.566	120.885	106.513	102.407	97.6165	102.407	100.696	
756.706	87.9182	0.232299	111.312	105.573	102.157	98.0573	96.0076	111.039	96.6908	101.029	
756.866	87.2246	2.97527	112.214	108.324	103.548	123.337	102.183	106.277	106.277	101.228	
757.025	83.0404	-0.573351	106.07	105.046	99.5856	98.2205	87.2995	92.76	96.1728	96.7189	
757.185	85.4361	3.93061	109.197	117.318	102.987	107.764	110.494	96.1634	101.623	98.5177	
757.344	81.9367	-0.027294	105.908	114.608	91.4077	101.643	94.1371	93.4548	96.1842	96.0136	
757.504	84.4825	3.4605	107.207	102.984	102.984	107.752	97.5344	101.622	113.202	102.711	
757.664	82.5782	4.87838	106.023	99.7888	96.3821	96.3821	97.0634	97.0634	93.6567	94.2018	
757.823	82.6683	1.87728	104.924	95.4692	95.4692	103.631	106.352	92.0684	106.352	95.6053	
757.983	79.1726	-0.0680294	104.221	97.214	98.5746	105.378	92.4519	99.2549	94.4928	96.0915	
758.142	81.5963	4.18268	105.487	100.548	99.8666	103.273	96.4605	103.954	98.5041	97.6526	
758.302	81.9902	9.69616	103.464	106.549	105.193	104.515	91.6321	95.7004	97.0565	93.1238	
758.461	81.4931	5.50702	104.01	106.926	102.857	107.604	92.6835	95.3963	103.535	96.8884	
758.62	80.164	3.80375	103.584	110.58	102.43	91.5617	96.9956	99.7126	91.5617	93.5994	
758.78	82.1086	4.48999	100.665	91.8482	98.6307	91.8482	89.1352	89.8135	97.2742	91.3056	
758.939	78.8851	2.22877	100.383	90.5558	91.9065	108.116	88.5296	107.44	108.116	95.8575	
759.098	79.5116	8.27625	102.593	101.983	96.5653	98.5971	99.2744	87.7608	91.1471	94.4996	
759.258	80.6231	4.15736	97.6709	110.494	95.6463	86.8726	100.371	109.144	91.5969	93.4866	
759.417	78.5972	7.52728	100.767	107.22	103.166	111.274	86.9488	84.246	94.3815	88.9083	
759.576	77.4117	4.83823	100.677	95.9808	100.035	91.2507	79.7633	85.8449	92.6022	89.7641	
759.735	77.9317	5.24942	97.1008	98.8889	100.913	93.491	86.0689	94.8405	90.1173	91.1969	
759.895	77.6133	4.59562	98.1791	94.5403	102.626	91.1711	94.5403	103.3	85.7803	92.0808	
760.054	75.6692	7.00415	97.6398	92.3766	96.4252	102.498	90.3522	86.9784	93.0513	91.5668	
760.213	78.2061	1.76607	97.6396	99.4259	94.7074	86.6185	96.7296	84.5963	90.6629	90.4944	
760.372	75.7353	6.24147	96.4659	85.1515	97.3102	95.2838	76.3702	91.9064	93.9328	91.5348	
760.531	76.832	-0.32305	95.8986	89.0002	90.3462	92.3653	86.3081	78.2318	78.9049	83.5824	
760.69	75.4758	6.53377	95.3876	98.83	81.9556	79.9307	89.3803	88.0304	92.7552	88.8066	
760.849	73.5917	4.30676	94.7352	85.1796	89.2172	91.236	84.5067	86.5255	91.236	87.232	
761.008	73.8956	3.44891	93.3563	90.0893	86.0476	103.562	87.3948	92.7837	75.9433	86.1149	
761.167	73.3371	-0.25567	98.7359	97.1548	87.0625	86.3897	80.3343	91.7722	81.0072	87.8699	
761.326	73.5011	6.49488	95.2784	86.2354	86.9077	88.2524	99.6823	88.9247	82.2013	84.6553	
761.485	72.0142	3.43118	90.3656	87.6302	96.4107	78.1741	82.2267	84.253	80.2004	83.9491	
761.644	71.1139	1.83869	95.9295	82.7139	88.1218	90.1498	89.4738	77.306	85.4178	85.9248	
761.803	72.5468	2.15672	90.3734	85.9589	77.1972	93.3726	72.4794	87.9808	75.8493	85.0153	
761.962	72.129	1.06708	96.692	90.6475	91.3229	97.4011	83.2185	83.2185	88.6214	85.7849	
762.121	71.252	1.2166	93.0358	93.6779	91.6503	88.9467	85.5673	86.2432	89.6226	84.2831	
762.28	69.6711	2.98994	91.8129	90.062	81.9811	87.3683	89.3886	92.7556	83.3279	84.8767	
762.439	71.0451	-0.52596	87.95	87.7814	85.0842	88.4557	75.6439	80.364	85.7585	80.3977	
762.597	68.9204	0.242677	89.5749	95.5745	78.7219	88.1593	88.8334	79.396	91.5298	84.3506	
762.756	69.9206	-0.040518	93.2454	82.4406	86.4924	82.4406	72.3111	85.8171	94.596	80.2121	
762.915	69.1824	1.00186	88.7322	91.9138	95.9754	87.1753	85.8214	66.1904	73.6367	81.4891	
763.073	68.1029	1.43375	93.2814	89.6632	76.8136	97.1024	86.2817	84.2528	86.2817	83.0693	
763.232	70.1463	2.56385	88.7308	81.7446	80.3881	83.1012	93.2751	80.3881	92.5969	82.4907	
763.391	68.1291	1.62696	90.2965	96.2621	96.94	79.9924	82.704	77.9587	77.2808	80.5348	
763.549	67.5623	3.49226	88.0675	84.3985	75.566	97.9871	79.6425	81.0014	89.834	83.4134	
763.708	67.6339	-1.66056	89.9221	82.3339	85.7367	90.5006	87.7784	71.445	83.0145	79.0672	
763.867	66.4781	3.50672	86.8388	82.8292	91.6639	76.0332	84.8679	76.0332	75.3536	80.6545	
764.025	65.2147	-1.28408	87.7544	90.2133	91.5793	72.4548	86.1152	64.9415	83.3831	78.8068	
764.184	64.5778	3.78503	89.5835	87.0556	77.4906	87.7389	89.1053	70.6584	81.5899	79.7452	
764.342	65.9996	1.79563	87.5129	76.9241	83.0923	82.407	71.4413	84.463	70.0706	78.0892	
764.501	65.4696	0.315549	85.8363	89.9865	83.1267	88.6145	72.1511	75.5809	79.0108	80.8973	
764.659	64.2729	3.20128	87.4444	90.0206	84.5248	68.7245	79.716	92.0815	77.6551	81.0556	
764.818	65.6308	3.83065	81.5321	76.5027	77.1916	84.0813	78.5696	73.0579	80.6365	78.1906	
764.976	64.7534	1.80215	82.2109	79.3907	72.5123	72.5123	73.2001	78.7029	81.4543	77.5679	
765.134	65.4031	2.68079	83.07	89.5302	86.0756	85.3846	72.948	66.7296	78.4754	77.6463	
765.293	64.1466	5.326	86.0991	84.6504	79.8211	79.1312	72.2322	90.8594	83.9605	76.82	
765.451	66.3903	3.78541	84.0486	69.732	80.1315	89.8377	75.9717	77.3583	84.9846	78.3983	
765.609	65.2129	1.06566	83.2253	77.3088	85.6126	75.2328	80.7687	86.3046	73.1569	74.956	
765.768	62.6526	0.98786	84.629	85.4986	77.1505	75.7591	76.4548	76.4548	100.108	77.4983	
765.926	61.3588	3.35037	82.9009	89.8923	79.509	80.8934	70.51	85.739	76.7401	76.1171	
766.084	61.8499	-0.111241	81.0737	73.7387	71.653	74.434	74.434	75.1293	89.0344	74.2254	
766.242	61.6519	3.03252	81.8918	86.3432	75.2147	81.4745	78.6924	80.779	80.779	74.2758	
766.4	61.9677	0.0975651	81.5853	83.223	75.5571	80.4354	72.7696	78.3447	73.4665	76.8115	
766.559	60.7926	2.51555	77.7725	78.8207	79.5195	77.4232	71.1343	77.4232	68.3392	69.3175	
766.717	58.5456	3.36469	77.5	77.7103	81.9162	86.823	82.6172	79.1123	80.5142	75.6775	
766.875	58.6951	0.910328	77.2098	87.9937	71.8879	76.7896	76.7896	64.8853	69.7871	68.2816	
767.033	61.0034	0.801197	83.964	78.0956	74.5816	87.9348	81.6096	81.6096	68.2563	74.687	
767.191	58.5763	2.36217	77.2206	79.4703	73.8461	67.5188	68.9249	74.5491	68.2218	71.7721	
767.349	57.7611	3.29742	77.5668	73.0927	77.3202	82.9568	78.7293	70.979	91.4117	73.1984	
767.507	57.919	0.0707364	78.4467	76.2538	64.2287	79.7907	74.8391	79.7907	76.9612	71.8682	
767.665	58.2118	2.90492	77.0937	78.4753	65.0135	70.6817	73.5157	78.4753	68.5561	72.7009	
767.823	57.4478	2.65384	79.828	67.7651	69.1842	78.4088	72.7322	75.5705	74.1513	72.3774	
767.981	58.0494	4.9537	77.7858	71.7717	60.3839	84.5829	82.4477	68.9247	67.5012	70.4194	
768.139	57.6851	4.08478	74.686	72.2308	75.0774	80.0588	61.5563	65.8261	63.6912	70.2383	
768.297	54.993	2.52775	79.7607	74.0517	81.9509	70.4611	56.817	63.9981	79.7966	71.1793	
768.454	57.0621	-2.07889	78.7901	74.3814	64.3454	66.4959	63.6285	74.3814	79.3994	70.9763	
768.612	56.7657	3.19685	74.7588	71.6988	76.0189	78.1789	73.8588	76.0189	64.4987	71.3748	
768.77	54.7784	2.57764	77.1635	77.7755	82.8156	68.4154	64.8153	71.2954	74.8954	70.5754	
768.928	56.5047	2.90546	78.9173	78.4475	84.2295	72.6655	62.547	72.6655	75.5565	70.0636	
769.086	53.6313	2.99317	74.786	76.9549	59.6032	60.3262	65.3871	69.0021	72.617	67.5199	
769.243	56.9904	3.51202	76.1469	72.3011	70.8498	69.3986	74.4779	61.4167	63.5936	67.5482	
769.401	55.3257	1.07711	74.1096	74.801	63.8844	57.3344	59.5177	68.9788	70.4344	68.7241	
769.559	53.1101	1.41181	75.1677	77.8967	70.6194	78.6245	81.5354	65.5253	75.7135	68.509	
769.716	51.7021	-1.60702	71.5561	57.7503	76.0119	69.4377	64.3245	70.8986	58.4808	65.7124	
769.874	55.5632	-0.659547	72.1984	65.3831	69.7801	74.1771	70.5129	64.6503	66.8488	64.7235	
770.031	54.1205	0.570768	69.0117	58.4379	62.8284	75.2682	73.8047	65.0237	70.1459	65.2432	
770.189	54.1191	4.86514	72.4406	63.8788	80.7819	77.8422	71.228	60.2042	63.1439	65.8631	
770.347	55.8967	-0.827005	70.8861	73.5443	69.8524	68.3756	66.1604	79.4515	59.5148	65.0897	
770.504	53.6871	1.8472	72.632	76.9914	67.3859	71.8192	71.8192	62.9527	73.297	63.6177	
770.662	54.1683	-1.23312	71.7514	77.4342	49.2061	66.2915	54.406	72.2342	72.9771	65.6229	
770.819	53.9587	1.2507	72.6299	76.5756	65.4086	68.3865	60.9418	64.6641	80.2979	66.8603	
770.977	50.3821	2.14836	69.8069	46.2346	45.4886	70.1053	57.424	68.6134	67.8674	63.3544	
771.134	52.02	5.1155	70.066	73.0488	67.0832	73.0488	55.8977	49.9321	70.8117	62.1988	
771.291	53.7089	2.11831	66.8694	58.3812	62.8882	61.3859	70.3999	55.3765	63.6394	62.0995	
771.449	51.1201	6.74408	68.9919	72.2516	55.0167	70.0035	63.2595	56.5154	73.0009	63.9339	
771.606	50.0214	0.43523	69.4041	68.166	71.918	69.6668	56.91	63.6636	58.4108	63.3634	
771.763	48.9608	0.8301	68.1512	68.7926	64.2648	68.038	64.2648	56.7184	64.2648	62.7178	
771.921	49.1783	1.87461	68.892	62.6937	62.6937	59.6701	68.7408	60.426	62.6937	61.4843	
772.078	51.2626	5.06577	68.2064	63.8589	71.4198	66.8833	59.3224	49.4933	55.542	63.8967	
772.235	50.2752	-1.74619	68.2534	63.3185	59.5225	60.2817	63.3185	76.9844	82.2989	62.9389	
772.393	49.8512	-0.502164	70.691	61.5227	69.8921	72.9356	63.0444	72.1747	69.1313	63.6912	
772.55	51.5655	-1.53995	64.8838	64.1595	62.6348	64.9219	58.0607	58.8231	59.5854	58.8993	
772.707	49.9777	0.229255	65.9568	59.7287	63.5496	60.4929	68.1347	49.7943	71.1915	60.1872	
772.864	47.6241	-2.69019	61.8436	57.155	50.2374	60.9982	64.0727	63.304	47.9315	56.4248	
773.021	51.9987	4.47417	66.9664	72.5399	65.6211	67.1586	63.3148	58.7023	57.9335	62.4308	
773.178	49.2021	1.78804	65.5796	58.3735	62.227	64.5392	54.52	58.3735	52.2078	56.7935	
773.335	46.8014	1.38739	67.1421	63.4039	62.6331	56.4669	56.4669	62.6331	58.0085	61.0915	
773.492	45.1979	-2.01292	65.1722	63.7013	60.6045	49.7656	56.7334	58.2818	49.7656	56.9657	
773.649	47.201	3.89207	63.5756	62.025	59.699	63.5756	61.2496	48.0693	62.025	56.8691	
773.806	47.26	5.27525	62.9074	68.2214	62.791	62.791	57.3606	56.5848	56.5848	60.774	
773.963	46.8777	0.625244	63.8765	61.5709	63.9156	68.6049	64.6971	54.5369	60.0078	60.8284	
774.12	45.8067	0.84422	59.2752	56.0312	55.2495	60.7213	54.4678	62.2847	70.8832	59.5878	
774.277	46.5666	2.38722	63.0023	57.152	57.152	75.9985	63.4342	57.152	57.152	57.5054	
774.434	48.5515	0.283927	65.3032	59.3881	70.4297	57.022	55.4446	56.2333	49.1351	56.7854	
774.591	45.8451	-0.888655	63.9435	57.953	61.9202	59.5399	61.9202	60.3333	63.5071	61.0474	
774.748	46.1613	4.22536	59.0518	61.6331	61.6331	62.4273	37.0116	64.0158	44.954	53.0156	
774.905	44.5126	0.764165	63.6247	49.416	57.376	53.396	54.988	55.784	50.212	56.4606	
775.061	44.2639	2.65647	61.2509	53.8496	68.2521	59.4506	62.6511	48.2486	61.851	55.4498	
775.218	47.6403	5.22527	59.6068	57.7521	58.5585	61.784	64.2031	48.8821	60.1713	53.3978	
775.375	45.7117	-0.579036	61.2411	63.7744	53.3196	52.5154	64.5786	59.7533	64.5786	56.456	
775.532	45.0394	1.13368	63.1702	56.7325	52.6836	63.2106	66.4497	45.3957	66.4497	59.6072	
775.688	46.9486	1.63511	62.7978	59.0742	57.4553	66.3594	49.3608	62.3121	43.6945	53.1247	
775.845	44.3807	1.38639	60.9357	64.1978	62.5668	61.7512	62.5668	58.4892	60.1202	57.9999	
776.002	46.1783	4.2307	61.0348	53.2349	58.1353	59.7688	49.968	49.1512	47.5178	55.3176	
776.158	45.8683	-0.180843	58.8315	49.4194	57.6396	60.1056	50.2414	52.7075	54.3515	54.3515	
776.315	42.2874	3.52806	60.5595	49.8522	44.1089	62.9799	44.9294	57.2365	47.3908	52.3137	
776.471	41.0392	6.51285	59.8193	52.0699	64.436	65.2605	62.7872	56.1919	71.0313	56.9339	
776.628	42.5857	2.23265	60.4055	57.5527	58.3796	63.341	41.8414	57.5527	47.6298	53.3354	
776.784	44.1416	5.81904	59.5122	58.3899	66.7029	68.3655	56.7274	55.8961	66.7029	54.9817	
776.941	43.6371	-1.0826	59.4431	60.5257	56.3619	57.1946	55.5291	55.5291	58.8602	53.9885	
777.097	43.232	1.79295	59.2261	41.5898	54.1573	65.8869	54.9951	62.5356	44.1033	57.2572	
777.254	42.9855	0.419616	58.0581	66.6182	34.7274	54.869	72.4929	63.2613	43.959	51.4701	
777.41	40.3944	3.16321	60.9891	56.8871	61.116	56.0413	56.8871	59.4244	58.5787	54.8995	
777.567	42.7201	5.34848	56.286	55.9051	60.9828	49.9812	55.0588	46.5961	54.2126	55.1858	
777.723	39.7163	3.07207	56.1035	60.2194	63.614	47.4898	55.1276	49.1871	69.5545	54.6608	
777.879	38.4696	1.9798	56.4585	41.9513	41.9513	68.4056	47.9249	56.4585	43.658	52.277	
778.036	42.5227	5.20407	58.5286	41.7524	49.4558	40.8964	52.0235	44.3202	58.871	53.0935	
778.192	41.2744	9.47478	53.2335	46.0375	54.6042	54.6042	55.4609	60.6009	54.6042	50.0639	
778.348	42.9196	1.63815	55.085	38.4879	41.9367	69.5266	46.2476	51.4207	57.456	51.6363	
778.505	41.7199	-3.20657	53.598	72.4754	55.2358	44.892	41.4441	42.3061	45.754	50.7966	
778.661	42.4926	-0.676689	55.5753	50.1964	44.9911	58.0044	60.607	48.4613	59.7395	51.5845	
778.817	45.4463	8.2535	52.8068	68.6289	47.8217	60.8262	51.2896	53.0235	41.753	49.8158	
778.973	38.8108	0.974185	56.9028	61.2519	55.1632	55.1632	55.1632	33.418	57.7726	49.6834	
779.129	40.7418	1.11861	56.8655	54.8992	43.5383	57.521	46.1601	56.647	47.034	48.4323	
779.285	41.1319	1.17922	49.6857	53.4698	59.6299	60.5099	54.3498	44.6696	49.9497	50.3897	
779.442	40.1505	5.19096	55.229	66.2642	49.4907	50.3735	53.9047	60.0845	52.1391	50.8149	
779.598	39.5969	5.0961	54.4768	55.8973	40.8043	66.5512	46.1313	39.9165	43.4678	48.3508	
779.754	38.3184	2.89028	52.5836	43.762	54.4011	39.3291	51.7413	56.1743	35.7827	48.461	
779.91	35.8865	0.821282	52.8745	47.3844	56.3114	56.3114	50.9552	58.0968	52.7406	50.1518	
