# Date: Thu Nov 9 15:43:33 2023
# LED: 1
#Wavelength	#Inital reflectance [%]	#Final reflectance [%]
91.0096	0	0
91.2522	0	0
91.4948	0	0
91.7374	0	0
91.98	0	0
92.2226	0	0
92.4651	0	0
92.7076	0	0
92.9501	0	0
93.1925	0	0
93.4349	0	0
93.6773	0	0
93.9197	0	0
94.1621	0	0
94.4044	0	0
94.6467	0	0
94.889	0	0
95.1312	0	0
95.3734	0	0
95.6156	0	0
95.8578	0	0
96.0999	0	0
96.3421	0	0
96.5842	0	0
96.8262	0	0
97.0683	0	0
97.3103	0	0
97.5523	0	0
97.7943	0	0
98.0362	0	0
98.2782	0	0
98.5201	0	0
98.7619	0	0
99.0038	0	0
99.2456	0	0
99.4874	0	0
99.7292	0	0
99.9709	0	0
100.213	0	0
100.454	0	0
100.696	0	0
100.938	0	0
101.179	0	0
101.421	0	0
101.662	0	0
101.904	0	0
102.146	0	0
102.387	0	0
102.629	0	0
102.87	0	0
103.111	0	0
103.353	0	0
103.594	0	0
103.835	0	0
104.077	0	0
104.318	0	0
104.559	0	0
104.801	0	0
105.042	0	0
105.283	0	0
105.524	0	0
105.765	0	0
106.006	0	0
106.248	0	0
106.489	0	0
106.73	0	0
106.971	0	0
107.212	0	0
107.453	0	0
107.694	0	0
107.935	0	0
108.175	0	0
108.416	0	0
108.657	0	0
108.898	0	0
109.139	0	0
109.38	0	0
109.62	0	0
109.861	0	0
110.102	0	0
110.342	0	0
110.583	0	0
110.824	0	0
111.064	0	0
111.305	0	0
111.545	0	0
111.786	0	0
112.026	0	0
112.267	0	0
112.507	0	0
112.748	0	0
112.988	0	0
113.228	0	0
113.469	0	0
113.709	0	0
113.949	0	0
114.19	0	0
114.43	0	0
114.67	0	0
114.91	0	0
115.151	0	0
115.391	0	0
115.631	0	0
115.871	0	0
116.111	0	0
116.351	0	0
116.591	0	0
116.831	0	0
117.071	0	0
117.311	0	0
117.551	0	0
117.791	0	0
118.031	0	0
118.27	0	0
118.51	0	0
118.75	0	0
118.99	0	0
119.23	0	0
119.469	0	0
119.709	0	0
119.949	0	0
120.188	0	0
120.428	0	0
120.667	0	0
120.907	0	0
121.147	0	0
121.386	0	0
121.626	0	0
121.865	0	0
122.104	0	0
122.344	0	0
122.583	0	0
122.823	0	0
123.062	0	0
123.301	0	0
123.541	0	0
123.78	0	0
124.019	0	0
124.258	0	0
124.498	0	0
124.737	0	0
124.976	0	0
125.215	0	0
125.454	0	0
125.693	0	0
125.932	0	0
126.171	0	0
126.41	0	0
126.649	0	0
126.888	0	0
127.127	0	0
127.366	0	0
127.605	0	0
127.844	0	0
128.082	0	0
128.321	0	0
128.56	0	0
128.799	0	0
129.037	0	0
129.276	0	0
129.515	0	0
129.753	0	0
129.992	0	0
130.231	0	0
130.469	0	0
130.708	0	0
130.946	0	0
131.185	0	0
131.423	0	0
131.662	0	0
131.9	0	0
132.138	0	0
132.377	0	0
132.615	0	0
132.853	0	0
133.092	0	0
133.33	0	0
133.568	0	0
133.806	0	0
134.045	0	0
134.283	0	0
134.521	0	0
134.759	0	0
134.997	0	0
135.235	0	0
135.473	0	0
135.711	0	0
135.949	0	0
136.187	0	0
136.425	0	0
136.663	0	0
136.901	0	0
137.139	0	0
137.377	0	0
137.614	0	0
137.852	0	0
138.09	0	0
138.328	0	0
138.565	0	0
138.803	0	0
139.041	0	0
139.278	0	0
139.516	0	0
139.754	0	0
139.991	0	0
140.229	0	0
140.466	0	0
140.704	0	0
140.941	0	0
141.179	0	0
141.416	0	0
141.653	0	0
141.891	0	0
142.128	0	0
142.365	0	0
142.603	0	0
142.84	0	0
143.077	0	0
143.314	0	0
143.552	0	0
143.789	0	0
144.026	0	0
144.263	0	0
144.5	0	0
144.737	0	0
144.974	0	0
145.211	0	0
145.448	0	0
145.685	0	0
145.922	0	0
146.159	0	0
146.396	0	0
146.633	0	0
146.869	0	0
147.106	0	0
147.343	0	0
147.58	0	0
147.817	0	0
148.053	0	0
148.29	0	0
148.527	0	0
148.763	0	0
149	0	0
149.236	0	0
149.473	0	0
149.71	0	0
149.946	0	0
150.182	0	0
150.419	0	0
150.655	0	0
150.892	0	0
151.128	0	0
151.365	0	0
151.601	0	0
151.837	0	0
152.073	0	0
152.31	0	0
152.546	0	0
152.782	0	0
153.018	0	0
153.254	0	0
153.491	0	0
153.727	0	0
153.963	0	0
154.199	0	0
154.435	0	0
154.671	0	0
154.907	0	0
155.143	0	0
155.379	0	0
155.615	0	0
155.851	0	0
156.086	0	0
156.322	0	0
156.558	0	0
156.794	0	0
157.03	0	0
157.265	0	0
157.501	0	0
157.737	0	0
157.972	0	0
158.208	0	0
158.444	0	0
158.679	0	0
158.915	0	0
159.15	0	0
159.386	0	0
159.621	0	0
159.857	0	0
160.092	0	0
160.328	0	0
160.563	0	0
160.798	0	0
161.034	0	0
161.269	0	0
161.504	0	0
161.739	0	0
161.975	0	0
162.21	0	0
162.445	0	0
162.68	0	0
162.915	0	0
163.15	0	0
163.385	0	0
163.621	0	0
163.856	0	0
164.091	0	0
164.326	0	0
164.561	0	0
164.795	0	0
165.03	0	0
165.265	0	0
165.5	0	0
165.735	0	0
165.97	0	0
166.204	0	0
166.439	0	0
166.674	0	0
166.909	0	0
167.143	0	0
167.378	0	0
167.613	0	0
167.847	0	0
168.082	0	0
168.316	0	0
168.551	0	0
168.785	0	0
169.02	0	0
169.254	0	0
169.489	0	0
169.723	0	0
169.958	0	0
170.192	0	0
170.426	0	0
170.66	0	0
170.895	0	0
171.129	0	0
171.363	0	0
171.597	0	0
171.832	0	0
172.066	0	0
172.3	0	0
172.534	0	0
172.768	0	0
173.002	0	0
173.236	0	0
173.47	0	0
173.704	0	0
173.938	0	0
174.172	0	0
174.406	0	0
174.64	0	0
174.874	0	0
175.107	0	0
175.341	0	0
175.575	0	0
175.809	0	0
176.042	0	0
176.276	0	0
176.51	0	0
176.743	0	0
176.977	0	0
177.211	0	0
177.444	0	0
177.678	0	0
177.911	0	0
178.145	0	0
178.378	0	0
178.612	0	0
178.845	0	0
179.079	0	0
179.312	0	0
179.545	0	0
179.779	0	0
180.012	0	0
180.245	0	0
180.478	0	0
180.712	0	0
180.945	0	0
181.178	0	0
181.411	0	0
181.644	0	0
181.877	0	0
182.111	0	0
182.344	0	0
182.577	0	0
182.81	0	0
183.043	0	0
183.275	0	0
183.508	0	0
183.741	0	0
183.974	0	0
184.207	0	0
184.44	0	0
184.673	0	0
184.905	0	0
185.138	0	0
185.371	0	0
185.604	0	0
185.836	0	0
186.069	0	0
186.302	0	0
186.534	0	0
186.767	0	0
186.999	0	0
187.232	0	0
187.464	0	0
187.697	0	0
187.929	0	0
188.162	0	0
188.394	0	0
188.626	0	0
188.859	0	0
189.091	0	0
189.323	0	0
189.556	0	0
189.788	0	0
190.02	0	0
190.252	0	0
190.484	0	0
190.717	0	0
190.949	0	0
191.181	0	0
191.413	0	0
191.645	0	0
191.877	0	0
192.109	0	0
192.341	0	0
192.573	0	0
192.805	0	0
193.037	0	0
193.268	0	0
193.5	0	0
193.732	0	0
193.964	0	0
194.196	0	0
194.427	0	0
194.659	0	0
194.891	0	0
195.123	0	0
195.354	0	0
195.586	0	0
195.817	0	0
196.049	0	0
196.281	0	0
196.512	0	0
196.744	0	0
196.975	0	0
197.206	0	0
197.438	0	0
197.669	0	0
197.901	0	0
198.132	0	0
198.363	0	0
198.595	0	0
198.826	0	0
199.057	0	0
199.288	0	0
199.519	0	0
199.751	0	0
199.982	0	0
200.213	0	0
200.444	0	0
200.675	0	0
200.906	0	0
201.137	0	0
201.368	0	0
201.599	0	0
201.83	0	0
202.061	0	0
202.292	0	0
202.523	0	0
202.754	0	0
202.984	0	0
203.215	0	0
203.446	0	0
203.677	0	0
203.907	0	0
204.138	0	0
204.369	0	0
204.599	0	0
204.83	0	0
205.061	0	0
205.291	0	0
205.522	0	0
205.752	0	0
205.983	0	0
206.213	0	0
206.444	0	0
206.674	0	0
206.904	0	0
207.135	0	0
207.365	0	0
207.595	0	0
207.826	0	0
208.056	0	0
208.286	0	0
208.516	0	0
208.747	0	0
208.977	0	0
209.207	0	0
209.437	0	0
209.667	0	0
209.897	0	0
210.127	0	0
210.357	0	0
210.587	0	0
210.817	0	0
211.047	0	0
211.277	0	0
211.507	0	0
211.737	0	0
211.967	0	0
212.196	0	0
212.426	0	0
212.656	0	0
212.886	0	0
213.115	0	0
213.345	0	0
213.575	0	0
213.804	0	0
214.034	0	0
214.264	0	0
214.493	0	0
214.723	0	0
214.952	0	0
215.182	0	0
215.411	0	0
215.641	0	0
215.87	0	0
216.099	0	0
216.329	0	0
216.558	0	0
216.787	0	0
217.017	0	0
217.246	0	0
217.475	0	0
217.704	0	0
217.934	0	0
218.163	0	0
218.392	0	0
218.621	0	0
218.85	0	0
219.079	0	0
219.308	0	0
219.537	0	0
219.766	0	0
219.995	0	0
220.224	0	0
220.453	0	0
220.682	0	0
220.911	0	0
221.14	0	0
221.368	0	0
221.597	0	0
221.826	0	0
222.055	0	0
222.283	0	0
222.512	0	0
222.741	0	0
222.969	0	0
223.198	0	0
223.426	0	0
223.655	0	0
223.884	0	0
224.112	0	0
224.341	0	0
224.569	0	0
224.797	0	0
225.026	0	0
225.254	0	0
225.483	0	0
225.711	0	0
225.939	0	0
226.168	0	0
226.396	0	0
226.624	0	0
226.852	0	0
227.08	0	0
227.309	0	0
227.537	0	0
227.765	0	0
227.993	0	0
228.221	0	0
228.449	0	0
228.677	0	0
228.905	0	0
229.133	0	0
229.361	0	0
229.589	0	0
229.817	0	0
230.045	0	0
230.272	0	0
230.5	0	0
230.728	0	0
230.956	0	0
231.183	0	0
231.411	0	0
231.639	0	0
231.866	0	0
232.094	0	0
232.322	0	0
232.549	0	0
232.777	0	0
233.004	0	0
233.232	0	0
233.459	0	0
233.687	0	0
233.914	0	0
234.142	0	0
234.369	0	0
234.596	0	0
234.824	0	0
235.051	0	0
235.278	0	0
235.506	0	0
235.733	0	0
235.96	0	0
236.187	0	0
236.414	0	0
236.641	0	0
236.869	0	0
237.096	0	0
237.323	0	0
237.55	0	0
237.777	0	0
238.004	0	0
238.231	0	0
238.458	0	0
238.685	0	0
238.911	0	0
239.138	0	0
239.365	0	0
239.592	0	0
239.819	0	0
240.045	0	0
240.272	0	0
240.499	0	0
240.726	0	0
240.952	0	0
241.179	0	0
241.405	0	0
241.632	0	0
241.859	0	0
242.085	0	0
242.312	0	0
242.538	0	0
242.764	0	0
242.991	0	0
243.217	0	0
243.444	0	0
243.67	0	0
243.896	0	0
244.123	0	0
244.349	0	0
244.575	0	0
244.801	0	0
245.028	0	0
245.254	0	0
245.48	0	0
245.706	0	0
245.932	0	0
246.158	0	0
246.384	0	0
246.61	0	0
246.836	0	0
247.062	0	0
247.288	0	0
247.514	0	0
247.74	0	0
247.966	0	0
248.192	0	0
248.418	0	0
248.643	0	0
248.869	0	0
249.095	0	0
249.321	0	0
249.546	0	0
249.772	0	0
249.998	0	0
250.223	0	0
250.449	0	0
250.675	0	0
250.9	0	0
251.126	0	0
251.351	0	0
251.577	0	0
251.802	0	0
252.027	0	0
252.253	0	0
252.478	0	0
252.704	0	0
252.929	0	0
253.154	0	0
253.379	0	0
253.605	0	0
253.83	0	0
254.055	0	0
254.28	0	0
254.505	0	0
254.731	0	0
254.956	0	0
255.181	0	0
255.406	0	0
255.631	0	0
255.856	0	0
256.081	0	0
256.306	0	0
256.531	0	0
256.756	0	0
256.98	0	0
257.205	0	0
257.43	0	0
257.655	0	0
257.88	0	0
258.104	0	0
258.329	0	0
258.554	0	0
258.779	0	0
259.003	0	0
259.228	0	0
259.452	0	0
259.677	0	0
259.902	0	0
260.126	0	0
260.351	0	0
260.575	0	0
260.799	0	0
261.024	0	0
261.248	0	0
261.473	0	0
261.697	0	0
261.921	0	0
262.146	0	0
262.37	0	0
262.594	0	0
262.818	0	0
263.043	0	0
263.267	0	0
263.491	0	0
263.715	0	0
263.939	0	0
264.163	0	0
264.387	0	0
264.611	0	0
264.835	0	0
265.059	0	0
265.283	0	0
265.507	0	0
265.731	0	0
265.955	0	0
266.179	0	0
266.402	0	0
266.626	0	0
266.85	0	0
267.074	0	0
267.298	0	0
267.521	0	0
267.745	0	0
267.969	0	0
268.192	0	0
268.416	0	0
268.639	0	0
268.863	0	0
269.086	0	0
269.31	0	0
269.533	0	0
269.757	0	0
269.98	0	0
270.204	0	0
270.427	0	0
270.65	0	0
270.874	0	0
271.097	0	0
271.32	0	0
271.543	0	0
271.767	0	0
271.99	0	0
272.213	0	0
272.436	0	0
272.659	0	0
272.882	0	0
273.105	0	0
273.328	0	0
273.551	0	0
273.774	0	0
273.997	0	0
274.22	0	0
274.443	0	0
274.666	0	0
274.889	0	0
275.112	0	0
275.335	0	0
275.557	0	0
275.78	0	0
276.003	0	0
276.226	0	0
276.448	0	0
276.671	0	0
276.894	0	0
277.116	0	0
277.339	0	0
277.561	0	0
277.784	0	0
278.007	0	0
278.229	0	0
278.452	0	0
278.674	0	0
278.896	0	0
279.119	0	0
279.341	0	0
279.563	0	0
279.786	0	0
280.008	0	0
280.23	0	0
280.453	0	0
280.675	0	0
280.897	0	0
281.119	0	0
281.341	0	0
281.563	0	0
281.785	0	0
282.008	0	0
282.23	0	0
282.452	0	0
282.674	0	0
282.896	0	0
283.117	0	0
283.339	0	0
283.561	0	0
283.783	0	0
284.005	0	0
284.227	0	0
284.449	0	0
284.67	0	0
284.892	0	0
285.114	0	0
285.336	0	0
285.557	0	0
285.779	0	0
286	0	0
286.222	0	0
286.444	0	0
286.665	0	0
286.887	0	0
287.108	0	0
287.33	0	0
287.551	0	0
287.772	0	0
287.994	0	0
288.215	0	0
288.437	0	0
288.658	0	0
288.879	0	0
289.1	0	0
289.322	0	0
289.543	0	0
289.764	0	0
289.985	0	0
290.206	0	0
290.427	0	0
290.649	0	0
290.87	0	0
291.091	0	0
291.312	0	0
291.533	0	0
291.754	0	0
291.974	0	0
292.195	0	0
292.416	0	0
292.637	0	0
292.858	0	0
293.079	0	0
293.3	0	0
293.52	0	0
293.741	0	0
293.962	0	0
294.182	0	0
294.403	0	0
294.624	0	0
294.844	0	0
295.065	0	0
295.286	0	0
295.506	0	0
295.727	0	0
295.947	0	0
296.168	0	0
296.388	0	0
296.608	0	0
296.829	0	0
297.049	0	0
297.269	0	0
297.49	0	0
297.71	0	0
297.93	0	0
298.151	0	0
298.371	0	0
298.591	0	0
298.811	0	0
299.031	0	0
299.251	0	0
299.471	0	0
299.691	0	0
299.911	0	0
300.132	0	0
300.352	0	0
300.571	0	0
300.791	0	0
301.011	0	0
301.231	0	0
301.451	0	0
301.671	0	0
301.891	0	0
302.11	0	0
302.33	0	0
302.55	0	0
302.77	0	0
302.989	0	0
303.209	0	0
303.429	0	0
303.648	0	0
303.868	0	0
304.087	0	0
304.307	0	0
304.526	0	0
304.746	0	0
304.965	0	0
305.185	0	0
305.404	0	0
305.624	0	0
305.843	0	0
306.062	0	0
306.282	0	0
306.501	0	0
306.72	0	0
306.939	0	0
307.159	0	0
307.378	0	0
307.597	0	0
307.816	0	0
308.035	0	0
308.254	0	0
308.473	0	0
308.692	0	0
308.911	0	0
309.13	0	0
309.349	0	0
309.568	0	0
309.787	0	0
310.006	0	0
310.225	0	0
310.444	0	0
310.662	0	0
310.881	0	0
311.1	0	0
311.319	0	0
311.537	0	0
311.756	0	0
311.975	0	0
312.193	0	0
312.412	0	0
312.631	0	0
312.849	0	0
313.068	0	0
313.286	0	0
313.505	0	0
313.723	0	0
313.941	0	0
314.16	0	0
314.378	0	0
314.597	0	0
314.815	0	0
315.033	0	0
315.252	0	0
315.47	0	0
315.688	0	0
315.906	0	0
316.124	0	0
316.343	0	0
316.561	0	0
316.779	0	0
316.997	0	0
317.215	0	0
317.433	0	0
317.651	0	0
317.869	0	0
318.087	0	0
318.305	0	0
318.523	0	0
318.741	0	0
318.958	0	0
319.176	0	0
319.394	0	0
319.612	0	0
319.83	0	0
320.047	0	0
320.265	0	0
320.483	0	0
320.7	0	0
320.918	0	0
321.136	0	0
321.353	0	0
321.571	0	0
321.788	0	0
322.006	0	0
322.223	0	0
322.441	0	0
322.658	0	0
322.875	0	0
323.093	0	0
323.31	0	0
323.528	0	0
323.745	0	0
323.962	0	0
324.179	0	0
324.397	0	0
324.614	0	0
324.831	0	0
325.048	0	0
325.265	0	0
325.482	0	0
325.699	0	0
325.916	0	0
326.133	0	0
326.35	0	0
326.567	0	0
326.784	0	0
327.001	0	0
327.218	0	0
327.435	0	0
327.652	0	0
327.869	0	0
328.086	0	0
328.302	0	0
328.519	0	0
328.736	0	0
328.953	0	0
329.169	0	0
329.386	0	0
329.602	0	0
329.819	0	0
330.036	0	0
330.252	0	0
330.469	0	0
330.685	0	0
330.902	0	0
331.118	0	0
331.335	0	0
331.551	0	0
331.767	0	0
331.984	0	0
332.2	0	0
332.416	0	0
332.633	0	0
332.849	0	0
333.065	0	0
333.281	0	0
333.497	0	0
333.714	0	0
333.93	0	0
334.146	0	0
334.362	0	0
334.578	0	0
334.794	0	0
335.01	0	0
335.226	0	0
335.442	0	0
335.658	0	0
335.874	0	0
336.09	0	0
336.305	0	0
336.521	0	0
336.737	0	0
336.953	0	0
337.168	0	0
337.384	0	0
337.6	0	0
337.816	0	0
338.031	0	0
338.247	0	0
338.462	0	0
338.678	0	0
338.894	0	0
339.109	0	0
339.325	0	0
339.54	0	0
339.755	0	0
339.971	0	0
340.186	0	0
340.402	0	0
340.617	0	0
340.832	0	0
341.048	0	0
341.263	0	0
341.478	0	0
341.693	0	0
341.909	0	0
342.124	0	0
342.339	0	0
342.554	0	0
342.769	0	0
342.984	0	0
343.199	0	0
343.414	0	0
343.629	0	0
343.844	0	0
344.059	0	0
344.274	0	0
344.489	0	0
344.704	0	0
344.919	0	0
345.133	0	0
345.348	0	0
345.563	0	0
345.778	0	0
345.992	0	0
346.207	0	0
346.422	0	0
346.636	0	0
346.851	0	0
347.066	0	0
347.28	0	0
347.495	0	0
347.709	0	0
347.924	0	0
348.138	0	0
348.353	0	0
348.567	0	0
348.782	0	0
348.996	0	0
349.21	0	0
349.425	0	0
349.639	0	0
349.853	0	0
350.067	0	0
350.282	0	0
350.496	0	0
350.71	0	0
350.924	0	0
351.138	0	0
351.352	0	0
351.566	0	0
351.78	0	0
351.994	0	0
352.208	0	0
352.422	0	0
352.636	0	0
352.85	0	0
353.064	0	0
353.278	0	0
353.492	0	0
353.706	0	0
353.919	0	0
354.133	0	0
354.347	0	0
354.561	0	0
354.774	0	0
354.988	0	0
355.202	0	0
355.415	0	0
355.629	0	0
355.842	0	0
356.056	0	0
356.269	0	0
356.483	0	0
356.696	0	0
356.91	0	0
357.123	0	0
357.337	0	0
357.55	0	0
357.763	0	0
357.977	0	0
358.19	0	0
358.403	0	0
358.616	0	0
358.83	0	0
359.043	0	0
359.256	0	0
359.469	0	0
359.682	0	0
359.895	0	0
360.108	0	0
360.321	0	0
360.534	0	0
360.747	0	0
360.96	0	0
361.173	0	0
361.386	0	0
361.599	0	0
361.812	0	0
362.025	0	0
362.238	0	0
362.45	0	0
362.663	0	0
362.876	0	0
363.089	0	0
363.301	0	0
363.514	0	0
363.727	0	0
363.939	0	0
364.152	0	0
364.364	0	0
364.577	0	0
364.789	0	0
365.002	0	0
365.214	0	0
365.427	0	0
365.639	0	0
365.852	0	0
366.064	0	0
366.276	0	0
366.489	0	0
366.701	0	0
366.913	0	0
367.125	0	0
367.338	0	0
367.55	0	0
367.762	0	0
367.974	0	0
368.186	0	0
368.398	0	0
368.61	0	0
368.822	0	0
369.034	0	0
369.246	0	0
369.458	0	0
369.67	0	0
369.882	0	0
370.094	0	0
370.306	0	0
370.518	0	0
370.73	0	0
370.941	0	0
371.153	0	0
371.365	0	0
371.577	0	0
371.788	0	0
372	0	0
372.212	0	0
372.423	0	0
372.635	0	0
372.846	0	0
373.058	0	0
373.269	0	0
373.481	0	0
373.692	0	0
373.904	0	0
374.115	0	0
374.327	0	0
374.538	0	0
374.749	0	0
374.961	0	0
375.172	0	0
375.383	0	0
375.594	0	0
375.805	0	0
376.017	0	0
376.228	0	0
376.439	0	0
376.65	0	0
376.861	0	0
377.072	0	0
377.283	0	0
377.494	0	0
377.705	0	0
377.916	0	0
378.127	0	0
378.338	0	0
378.549	0	0
378.76	0	0
378.971	0	0
379.181	0	0
379.392	0	0
379.603	0	0
379.814	0	0
380.024	0	0
380.235	0	0
380.446	0	0
380.656	0	0
380.867	0	0
381.078	0	0
381.288	0	0
381.499	0	0
381.709	0	0
381.92	0	0
382.13	0	0
382.34	0	0
382.551	0	0
382.761	0	0
382.972	0	0
383.182	0	0
383.392	0	0
383.603	0	0
383.813	0	0
384.023	0	0
384.233	0	0
384.443	0	0
384.654	0	0
384.864	0	0
385.074	0	0
385.284	0	0
385.494	0	0
385.704	0	0
385.914	0	0
386.124	0	0
386.334	0	0
386.544	0	0
386.754	0	0
386.964	0	0
387.173	0	0
387.383	0	0
387.593	0	0
387.803	0	0
388.013	0	0
388.222	0	0
388.432	0	0
388.642	0	0
388.851	0	0
389.061	0	0
389.271	0	0
389.48	0	0
389.69	0	0
389.899	0	0
390.109	0	0
390.318	0	0
390.528	0	0
390.737	0	0
390.947	0	0
391.156	0	0
391.365	0	0
391.575	0	0
391.784	0	0
391.993	0	0
392.202	0	0
392.412	0	0
392.621	0	0
392.83	0	0
393.039	0	0
393.248	0	0
393.457	0	0
393.666	0	0
393.876	0	0
394.085	0	0
394.294	0	0
394.503	0	0
394.711	0	0
394.92	0	0
395.129	0	0
395.338	0	0
395.547	0	0
395.756	0	0
395.965	0	0
396.173	0	0
396.382	0	0
396.591	0	0
396.8	0	0
397.008	0	0
397.217	0	0
397.426	0	0
397.634	0	0
397.843	0	0
398.051	0	0
398.26	0	0
398.468	0	0
398.677	0	0
398.885	0	0
399.094	0	0
399.302	0	0
399.51	0	0
399.719	0	0
399.927	0	0
400.135	0	0
400.344	0	0
400.552	0	0
400.76	0	0
400.968	0	0
401.176	0	0
401.385	0	0
401.593	0	0
401.801	0	0
402.009	0	0
402.217	0	0
402.425	0	0
402.633	0	0
402.841	0	0
403.049	0	0
403.257	0	0
403.465	0	0
403.673	0	0
403.88	0	0
404.088	0	0
404.296	0	0
404.504	0	0
404.712	0	0
404.919	0	0
405.127	0	0
405.335	0	0
405.542	0	0
405.75	0	0
405.958	0	0
406.165	0	0
406.373	0	0
406.58	0	0
406.788	0	0
406.995	0	0
407.203	0	0
407.41	0	0
407.617	0	0
407.825	0	0
408.032	0	0
408.239	35.2357	34.2794
408.447	33.5116	34.4129
408.654	35.491	32.6251
408.861	34.0483	34.1341
409.068	37.6362	33.9309
409.276	35.5256	35.7672
409.483	36.0831	34.9901
409.69	36.5571	32.3219
409.897	38.0962	34.2515
410.104	36.7576	34.9461
410.311	36.2161	35.0606
410.518	37.4292	35.3626
410.725	37.3866	36.1672
410.932	36.0099	34.8789
411.139	37.1127	38.4071
411.346	37.1688	36.459
411.553	38.2581	36.1301
411.76	37.8313	36.7146
411.967	37.7028	35.2694
412.174	37.6006	37.6181
412.381	38.9141	37.4398
412.587	36.8359	36.8195
412.794	39.5104	37.8615
413.001	39.4479	37.9755
413.208	40.3239	38.1033
413.414	41.9046	37.6737
413.621	40.9697	37.6806
413.828	39.6962	37.9474
414.034	41.2253	38.8629
414.241	38.7044	37.2118
414.447	40.2332	37.8144
414.654	40.0625	37.6832
414.86	41.5597	39.4362
415.067	40.1267	38.287
415.273	41.2009	39.4128
415.48	40.7949	39.2564
415.686	40.9788	39.326
415.893	41.3813	38.7598
416.099	42.2547	38.6814
416.305	41.9828	39.7956
416.512	42.2373	39.3427
416.718	42.0902	39.1268
416.924	42.2058	39.823
417.131	42.0515	38.2172
417.337	42.9503	39.3495
417.543	42.5699	39.3443
417.749	42.548	39.8137
417.955	42.2186	39.4222
418.161	43.0649	39.2903
418.367	43.1533	39.3015
418.574	43.7173	40.1809
418.78	42.9709	39.8948
418.986	42.8694	39.8248
419.192	42.9728	39.5343
419.398	43.3227	40.0425
419.604	42.9963	39.9968
419.809	43.5522	39.9629
420.015	43.4109	39.8833
420.221	43.0206	40.3813
420.427	43.3253	39.7731
420.633	43.2373	39.9912
420.839	43.1441	40.2147
421.044	44.0098	39.9621
421.25	43.0822	39.8554
421.456	44.0008	40.558
421.662	43.9892	40.2319
421.867	43.9328	40.7569
422.073	44.1693	40.6296
422.278	43.7119	40.815
422.484	44.2	40.4009
422.69	43.7851	40.6972
422.895	44.7448	40.7236
423.101	44.4418	40.5467
423.306	44.2965	40.2966
423.512	44.673	40.2667
423.717	44.4893	40.3527
423.922	44.7361	40.7576
424.128	44.3292	40.5567
424.333	44.8206	40.7448
424.539	44.6498	40.8161
424.744	44.158	40.0628
424.949	44.8723	40.6806
425.154	44.7665	41.1188
425.36	44.9574	40.6348
425.565	44.6432	40.5859
425.77	44.9815	40.7965
425.975	44.8931	41.0884
426.18	44.6219	40.6565
426.385	45.0405	40.5911
426.591	45.4991	40.961
426.796	44.8418	40.8447
427.001	44.9065	41.4101
427.206	45.1241	40.9206
427.411	44.9328	40.8563
427.616	45.3937	40.9553
427.821	45.2442	40.9571
428.026	45.5227	41.2478
428.23	45.1263	40.9706
428.435	45.4431	41.118
428.64	45.6405	41.1556
428.845	45.3259	41.0141
429.05	45.204	40.9597
429.254	45.6312	41.2081
429.459	45.3938	41.3353
429.664	45.4663	40.9688
429.869	45.5879	41.0521
430.073	45.2178	41.0974
430.278	45.8541	41.5536
430.483	45.7531	41.2331
430.687	45.6615	41.3595
430.892	45.5681	41.372
431.096	45.5496	41.2635
431.301	45.7401	41.43
431.505	46.0338	41.2057
431.71	45.9713	41.2574
431.914	45.6287	41.1415
432.118	45.9898	41.5529
432.323	45.6896	41.2165
432.527	45.8387	41.2917
432.732	45.9755	41.331
432.936	46.0093	41.472
433.14	45.9167	41.2468
433.344	45.95	41.1799
433.549	45.8857	41.0324
433.753	46.1508	41.2916
433.957	46.1567	41.0827
434.161	45.9064	41.4137
434.365	46.1113	41.3411
434.57	46.2191	41.361
434.774	46.0375	41.4116
434.978	46.2495	41.4461
435.182	46.0266	41.134
435.386	46.1381	41.0297
435.59	46.1075	41.3589
435.794	46.3274	41.4033
435.998	46.6011	41.5897
436.201	46.3797	41.3981
436.405	46.4031	41.3891
436.609	46.4438	41.5173
436.813	46.4457	41.3947
437.017	46.4218	41.4846
437.221	46.639	41.6015
437.424	46.5609	41.6921
437.628	46.7416	41.7802
437.832	46.7394	41.8271
438.036	46.799	41.9431
438.239	46.7291	41.8806
438.443	47.1183	41.9223
438.646	47.2222	42.0889
438.85	47.0903	42.1462
439.054	47.1613	42.2798
439.257	47.3382	42.5606
439.461	47.5229	42.5266
439.664	47.6144	42.6577
439.868	47.7356	42.7414
440.071	47.8626	42.8691
440.274	47.8416	43.037
440.478	48.009	42.9562
440.681	48.2106	43.2238
440.885	48.2513	43.2821
441.088	48.3774	43.4519
441.291	48.4587	43.5676
441.494	48.6636	43.8563
441.698	48.7542	43.9783
441.901	48.8894	44.0982
442.104	48.9222	44.1577
442.307	49.1222	44.3973
442.51	49.2186	44.5244
442.713	49.3112	44.7629
442.916	49.6234	44.9267
443.12	49.8197	45.1482
443.323	49.801	45.2381
443.526	49.9683	45.5625
443.729	49.9898	45.5418
443.932	50.0965	45.6164
444.134	50.2156	45.8823
444.337	50.4961	46.0256
444.54	50.5475	46.1673
444.743	50.4212	46.2971
444.946	50.7205	46.3163
445.149	50.9266	46.5792
445.352	51.0048	46.6923
445.554	51.1509	46.9389
445.757	51.09	46.9538
445.96	51.146	47.0971
446.162	51.3489	47.1649
446.365	51.3754	47.2536
446.568	51.4372	47.4593
446.77	51.6312	47.5173
446.973	51.5992	47.5678
447.175	51.5122	47.8852
447.378	51.6153	47.7226
447.58	51.6537	47.9363
447.783	51.7847	48.0219
447.985	51.8703	48.0581
448.188	51.6944	47.8489
448.39	51.8594	48.163
448.593	51.9943	48.0787
448.795	51.8849	48.1473
448.997	51.9608	47.9687
449.2	51.717	47.977
449.402	51.7321	47.8678
449.604	51.6533	47.7212
449.806	51.8177	47.8162
450.009	51.6446	47.9087
450.211	51.4123	47.7903
450.413	51.4295	47.7664
450.615	51.7181	47.6383
450.817	51.6578	47.611
451.019	51.2105	47.4656
451.221	51.19	47.4254
451.423	51.2481	47.4308
451.625	51.195	47.0594
451.827	51.3921	47.1605
452.029	51.1863	47.2326
452.231	51.0022	47.082
452.433	51.1076	46.8638
452.635	50.7321	46.9803
452.837	50.7649	46.7105
453.039	50.6763	46.8922
453.24	50.9466	46.6972
453.442	50.7184	46.5962
453.644	50.7383	46.6997
453.846	50.7298	46.4679
454.047	50.6094	46.6674
454.249	50.6231	46.4169
454.451	50.5555	46.3549
454.652	50.6786	46.5196
454.854	50.4323	46.4806
455.056	50.3757	46.2654
455.257	50.3812	46.1704
455.459	50.5543	46.1924
455.66	50.4181	46.2813
455.862	50.3602	46.1435
456.063	50.2322	46.4995
456.265	50.3432	46.4005
456.466	50.4187	46.3251
456.667	50.5805	46.5174
456.869	50.6932	46.4174
457.07	50.217	46.3523
457.271	50.6961	46.2567
457.473	50.4597	46.4198
457.674	50.4473	46.4062
457.875	50.4383	46.2649
458.076	50.3724	46.3489
458.277	50.3902	46.4182
458.479	50.7074	46.5298
458.68	50.4951	46.5256
458.881	50.6401	46.5783
459.082	50.4959	46.583
459.283	50.5489	46.5818
459.484	50.5209	46.5581
459.685	50.6924	46.5971
459.886	50.7763	46.7961
460.087	50.2731	46.6377
460.288	50.3828	46.5566
460.489	50.5642	46.486
460.69	50.5037	46.4855
460.89	50.4386	46.5719
461.091	50.6624	47.0361
461.292	50.3937	46.5797
461.493	50.4901	46.6048
461.694	50.4034	46.5366
461.894	50.5283	46.578
462.095	50.2372	46.7927
462.296	50.2515	46.4815
462.496	50.418	46.8109
462.697	50.2578	46.5114
462.898	50.0756	46.4153
463.098	50.1206	46.4494
463.299	50.1185	46.3146
463.499	49.8812	46.4142
463.7	49.6738	46.2921
463.9	50.1342	46.3872
464.101	49.8106	46.6003
464.301	49.8172	45.8828
464.501	49.8064	46.0281
464.702	49.5972	46.1727
464.902	49.7248	45.8744
465.103	49.1785	45.708
465.303	49.4765	45.9685
465.503	49.4684	45.8975
465.703	49.577	45.938
465.904	49.2277	45.6261
466.104	49.1448	45.6269
466.304	49.0752	45.1677
466.504	49.1144	45.1801
466.704	48.8231	45.2954
466.904	48.9965	45.1665
467.104	48.6957	44.9624
467.304	48.2515	44.7799
467.504	48.6737	44.7752
467.704	48.5783	45.0379
467.904	48.3423	44.5616
468.104	48.1384	44.8142
468.304	47.9412	44.633
468.504	47.8223	44.1762
468.704	47.8498	44.1018
468.904	48.174	44.2209
469.104	47.6096	44.3798
469.304	47.814	44.1483
469.503	47.5956	43.7471
469.703	47.517	43.7368
469.903	47.1383	43.5098
470.103	47.7329	43.8657
470.302	47.3966	43.6997
470.502	47.3706	43.5
470.701	46.8026	43.4914
470.901	47.0585	43.7543
471.101	47.3045	43.6415
471.3	47.1907	43.2688
471.5	46.9425	43.0795
471.699	47.1655	43.1254
471.899	46.6125	43.2789
472.098	46.5429	42.9905
472.298	46.4768	42.8675
472.497	46.7425	42.962
472.696	46.3746	42.8556
472.896	46.2512	42.8316
473.095	46.2299	42.8317
473.294	46.3726	42.8714
473.494	46.2317	42.5547
473.693	45.9883	42.4816
473.892	46.0391	42.5646
474.091	45.8021	42.4066
474.29	45.3732	42.1318
474.49	45.7472	42.3829
474.689	45.7401	42.1408
474.888	45.7273	42.15
475.087	45.3966	42.0551
475.286	45.3757	42.1654
475.485	45.2556	41.8422
475.684	45.2754	42.1996
475.883	45.3104	41.9271
476.082	45.1082	41.808
476.281	44.8149	41.6418
476.48	45.1177	41.7688
476.678	44.9321	41.4209
476.877	44.8283	41.6518
477.076	44.5677	41.0994
477.275	44.6544	41.4407
477.474	44.3993	41.1361
477.672	44.4735	41.3137
477.871	44.3877	41.1427
478.07	44.399	41.1109
478.269	44.2755	41.035
478.467	43.9727	41.081
478.666	43.8379	40.8546
478.864	43.9934	40.8293
479.063	43.8066	40.9201
479.262	43.5125	40.6593
479.46	43.5728	40.5102
479.659	43.5527	40.2532
479.857	43.2978	40.5789
480.055	43.2642	40.2435
480.254	43.3082	40.0993
480.452	42.9335	40.1038
480.651	43.0796	40.0911
480.849	43.2154	39.8838
481.047	42.8378	39.9509
481.246	42.9031	39.9307
481.444	42.6221	39.7837
481.642	42.4415	39.7108
481.84	42.4849	39.7375
482.039	42.3515	39.5069
482.237	42.3881	39.2983
482.435	42.1024	39.1889
482.633	42.0335	39.3343
482.831	42.0028	39.2636
483.029	42.0006	38.9561
483.227	41.7744	39.1574
483.425	41.6425	38.9918
483.623	41.8516	39.0244
483.821	41.5788	38.9037
484.019	41.4422	38.704
484.217	41.3421	38.5226
484.415	41.3566	38.8339
484.613	41.1153	38.3206
484.811	41.2032	38.6386
485.008	41.0644	38.3365
485.206	40.8779	38.3075
485.404	40.8547	38.2734
485.602	40.9312	38.197
485.799	40.854	37.9237
485.997	40.7984	38.2183
486.195	40.4921	37.8687
486.392	40.4401	37.9667
486.59	40.1516	37.6673
486.788	40.3582	37.7587
486.985	40.0772	37.5278
487.183	39.8474	37.6231
487.38	39.8056	37.3739
487.578	39.7572	37.4703
487.775	39.595	37.3271
487.973	39.6957	37.4964
488.17	39.4147	37.266
488.367	39.3267	37.2455
488.565	39.2541	37.0519
488.762	39.0097	36.9719
488.959	39.0431	36.7808
489.157	38.8845	36.7833
489.354	38.9706	36.6077
489.551	38.8151	36.6956
489.749	38.7028	36.5708
489.946	38.6571	36.4812
490.143	38.5475	36.6283
490.34	38.4927	36.4335
490.537	38.3605	36.4345
490.734	38.2391	36.2389
490.931	38.1694	36.2996
491.128	38.1497	36.1357
491.325	37.9319	35.8385
491.522	38.0088	36.0744
491.719	37.5338	35.8509
491.916	37.6955	36.0316
492.113	37.53	35.8673
492.31	37.6053	35.7701
492.507	37.6605	35.5583
492.704	37.3354	35.4901
492.901	37.2413	35.4974
493.097	37.3138	35.511
493.294	37.0569	35.4103
493.491	37.14	35.4591
493.688	36.9346	35.3691
493.884	36.853	35.1955
494.081	36.623	35.0841
494.278	36.8265	35.0046
494.474	36.423	34.8063
494.671	36.349	34.9395
494.867	36.2372	34.8379
495.064	36.2045	34.6701
495.26	36.1832	34.5573
495.457	36.0221	34.6403
495.653	35.8909	34.3375
495.85	35.9592	34.4697
496.046	35.6947	34.5203
496.243	35.6944	34.3591
496.439	35.4767	34.2846
496.635	35.4606	34.1447
496.832	35.3735	34.1999
497.028	35.1239	33.9123
497.224	35.015	33.8481
497.42	35.1041	33.8615
497.617	34.922	33.7138
497.813	34.9533	33.6752
498.009	34.7405	33.6988
498.205	34.7131	33.5368
498.401	34.6614	33.6558
498.597	34.4722	33.4048
498.793	34.3654	33.1724
498.989	34.5735	33.3967
499.185	34.1911	33.146
499.381	34.1785	33.1328
499.577	33.8998	32.9344
499.773	33.8429	32.9071
499.969	33.7141	32.8679
500.165	33.6658	32.7879
500.361	33.5093	32.7298
500.557	33.4711	32.5931
500.753	33.465	32.4705
500.948	33.3734	32.4543
501.144	33.1625	32.3717
501.34	33.0278	32.2324
501.536	32.8929	32.0609
501.731	32.887	32.1357
501.927	32.9199	32.0423
502.123	32.7137	31.9957
502.318	32.6339	32.0048
502.514	32.6172	31.7841
502.709	32.2316	31.7397
502.905	32.4424	31.7695
503.1	32.1998	31.6337
503.296	32.1472	31.4521
503.491	31.8505	31.2643
503.687	31.8008	31.4328
503.882	31.7094	31.18
504.078	31.797	31.3023
504.273	31.6187	31.1747
504.468	31.5686	31.1114
504.664	31.47	30.943
504.859	31.42	30.8126
505.054	31.2469	30.8733
505.249	31.0932	30.7175
505.445	30.9565	30.8022
505.64	30.7356	30.5942
505.835	30.7753	30.4429
506.03	30.6743	30.5572
506.225	30.6214	30.3118
506.42	30.5184	30.3763
506.615	30.4469	30.1361
506.81	30.1976	30.1345
507.005	30.1169	29.9833
507.2	30.1994	29.9669
507.395	30.0865	29.8034
507.59	29.8483	29.8092
507.785	29.8399	29.6701
507.98	29.7278	29.6954
508.175	29.5413	29.5315
508.37	29.6547	29.5625
508.564	29.3758	29.3105
508.759	29.2565	29.4063
508.954	29.2321	29.1797
509.149	29.0412	29.1793
509.343	28.9662	29.0997
509.538	28.8626	29.0091
509.733	28.7762	28.8793
509.927	28.7198	28.8826
510.122	28.5509	28.8233
510.317	28.5815	28.7449
510.511	28.3251	28.5701
510.706	28.453	28.5506
510.9	28.1657	28.4766
511.095	28.0708	28.3376
511.289	28.0237	28.2595
511.484	27.9587	28.198
511.678	27.8835	28.0861
511.872	27.8703	28.0024
512.067	27.5713	27.9344
512.261	27.6591	28.0545
512.455	27.6045	27.8495
512.65	27.3739	27.823
512.844	27.1602	27.708
513.038	27.2196	27.6512
513.232	27.1036	27.5911
513.427	27.0821	27.5267
513.621	26.9554	27.4512
513.815	26.827	27.3074
514.009	26.7587	27.2926
514.203	26.6228	27.2311
514.397	26.4549	27.006
514.591	26.453	27.0357
514.785	26.2937	26.9006
514.979	26.3087	26.8322
515.173	26.1899	26.6772
515.367	26.0962	26.7257
515.561	25.9517	26.5141
515.755	25.9418	26.6033
515.949	25.6868	26.4217
516.142	25.6145	26.3616
516.336	25.5227	26.2446
516.53	25.4755	26.3747
516.724	25.4246	26.1626
516.917	25.4609	25.9348
517.111	25.1426	25.9478
517.305	25.2561	26.013
517.499	24.9931	25.8864
517.692	24.8446	25.8433
517.886	24.8878	25.619
518.079	24.7962	25.6697
518.273	24.6431	25.5133
518.466	24.5621	25.4693
518.66	24.4299	25.4614
518.853	24.4547	25.2983
519.047	24.3095	25.1845
519.24	24.1924	25.1321
519.434	24.0817	25.0415
519.627	24.0234	25.0413
519.82	24.0151	24.9638
520.014	23.9243	24.8011
520.207	23.8671	24.7259
520.4	23.6667	24.6963
520.594	23.7744	24.7005
520.787	23.43	24.6018
520.98	23.4049	24.4752
521.173	23.3666	24.4418
521.366	23.353	24.3254
521.56	23.1674	24.3038
521.753	23.1868	24.2423
521.946	23.0075	24.1256
522.139	22.8797	23.9918
522.332	22.8019	23.9009
522.525	22.7862	23.8662
522.718	22.7207	23.8051
522.911	22.5871	23.6456
523.104	22.4701	23.6249
523.297	22.4558	23.6585
523.489	22.3025	23.5628
523.682	22.2969	23.4226
523.875	22.2444	23.3608
524.068	22.1284	23.3938
524.261	22.077	23.3082
524.453	21.9873	23.1949
524.646	21.7873	23.1013
524.839	21.7008	23.0505
525.031	21.7252	22.959
525.224	21.5638	22.8443
525.417	21.5351	22.8492
525.609	21.4157	22.8232
525.802	21.3402	22.6089
525.995	21.2244	22.5334
526.187	21.1558	22.4862
526.38	21.0686	22.4523
526.572	20.9759	22.4729
526.765	20.995	22.294
526.957	20.7739	22.2972
527.149	20.7207	22.2106
527.342	20.5995	22.1377
527.534	20.5414	22.0373
527.726	20.6162	22.026
527.919	20.3763	21.7761
528.111	20.4356	21.8948
528.303	20.2501	21.6625
528.495	20.1933	21.6689
528.688	20.1027	21.6249
528.88	20.0472	21.501
529.072	19.9433	21.4814
529.264	19.9023	21.3723
529.456	19.7677	21.2817
529.648	19.7274	21.2297
529.84	19.6284	21.2646
530.032	19.6354	21.0998
530.224	19.4873	20.9852
530.416	19.4708	21.0378
530.608	19.3388	20.9094
530.8	19.1728	20.8291
530.992	19.0868	20.711
531.184	19.1273	20.7269
531.376	19.0369	20.6405
531.568	18.9738	20.5425
531.759	18.8973	20.4025
531.951	18.7395	20.4596
532.143	18.7162	20.3336
532.335	18.6499	20.3165
532.526	18.4666	20.187
532.718	18.4491	20.1949
532.91	18.2909	20.1036
533.101	18.4109	19.9724
533.293	18.2496	19.9713
533.484	18.184	19.8842
533.676	18.0862	19.8883
533.868	18.061	19.7474
534.059	17.9228	19.6145
534.251	17.8655	19.5867
534.442	17.7342	19.5156
534.633	17.7744	19.513
534.825	17.7257	19.386
535.016	17.5786	19.4664
535.208	17.5147	19.2304
535.399	17.4313	19.1889
535.59	17.3453	19.2109
535.781	17.2346	19.1342
535.973	17.2669	19.0291
536.164	17.1013	18.9303
536.355	17.0408	18.84
536.546	17.0808	18.9128
536.737	16.9156	18.8816
536.929	16.9181	18.707
537.12	16.7965	18.693
537.311	16.7535	18.7019
537.502	16.6953	18.5585
537.693	16.5738	18.4251
537.884	16.4263	18.4054
538.075	16.4254	18.3529
538.266	16.4428	18.2336
538.457	16.3894	18.2888
538.648	16.28	18.1834
538.838	16.1465	18.1477
539.029	16.1002	18.047
539.22	16.1312	17.9512
539.411	15.9801	17.8614
539.602	16.0059	17.8926
539.792	15.8103	17.8094
539.983	15.8545	17.7795
540.174	15.6671	17.6808
540.365	15.6891	17.6251
540.555	15.5746	17.5725
540.746	15.6405	17.494
540.936	15.4429	17.4474
541.127	15.4118	17.4262
541.317	15.3094	17.3973
541.508	15.3466	17.3138
541.698	15.2026	17.1384
541.889	15.2391	17.2318
542.079	15.1297	17.1461
542.27	15.0409	17.0788
542.46	14.9635	17.0621
542.651	14.8501	16.9127
542.841	14.7936	16.9063
543.031	14.885	16.8588
543.222	14.6333	16.7905
543.412	14.6138	16.7306
543.602	14.7039	16.6578
543.792	14.6026	16.6409
543.982	14.4854	16.6157
544.173	14.4733	16.5312
544.363	14.4405	16.5169
544.553	14.313	16.5078
544.743	14.2245	16.4064
544.933	14.1875	16.3393
545.123	14.1489	16.203
545.313	14.1241	16.1377
545.503	14.0305	16.1324
545.693	13.9526	16.1412
545.883	13.9145	16.1137
546.073	13.9947	15.9541
546.263	13.8118	16.014
546.453	13.7225	15.8561
546.643	13.7833	15.8392
546.832	13.6566	15.6687
547.022	13.5604	15.7566
547.212	13.5325	15.713
547.402	13.5055	15.5965
547.591	13.478	15.5808
547.781	13.3617	15.5576
547.971	13.2898	15.4673
548.16	13.1632	15.3051
548.35	13.1815	15.3365
548.54	13.2653	15.3307
548.729	13.1385	15.2939
548.919	13.0305	15.1823
549.108	12.9546	15.1586
549.298	12.9299	15.165
549.487	12.9235	15.083
549.677	12.8137	15.0076
549.866	12.8324	14.9673
550.055	12.7092	14.9349
550.245	12.6666	14.8863
550.434	12.651	14.8439
550.623	12.6528	14.7322
550.813	12.6286	14.797
551.002	12.5086	14.7569
551.191	12.3782	14.6227
551.381	12.391	14.6416
551.57	12.3197	14.4801
551.759	12.2682	14.5146
551.948	12.2083	14.4733
552.137	12.2708	14.437
552.326	12.2014	14.3762
552.515	12.0702	14.2969
552.704	12.0155	14.2439
552.893	11.9946	14.2171
553.082	11.9648	14.1415
553.271	11.9671	14.2638
553.46	11.8156	14.1127
553.649	11.8912	14.1206
553.838	11.8286	14.0159
554.027	11.7625	13.9779
554.216	11.719	13.8913
554.405	11.6805	13.9743
554.593	11.6376	13.8699
554.782	11.5356	13.7753
554.971	11.5286	13.6911
555.16	11.5887	13.7648
555.348	11.501	13.6201
555.537	11.3948	13.5732
555.726	11.3518	13.5237
555.914	11.3434	13.566
556.103	11.3767	13.5156
556.291	11.2929	13.5733
556.48	11.2556	13.4877
556.668	11.2115	13.4118
556.857	11.0864	13.3325
557.045	11.1321	13.3686
557.234	11.0437	13.3041
557.422	11.102	13.2028
557.611	11.0165	13.2294
557.799	10.9565	13.2848
557.987	10.9057	13.1566
558.176	10.9388	13.1441
558.364	10.8566	13.0935
558.552	10.7561	13.0203
558.74	10.7635	12.9669
558.929	10.7323	12.9936
559.117	10.7119	12.9294
559.305	10.6873	12.8934
559.493	10.6117	12.8866
559.681	10.6362	12.8023
559.869	10.5311	12.7324
560.057	10.5552	12.7841
560.245	10.5126	12.7035
560.433	10.4358	12.6833
560.621	10.4889	12.7399
560.809	10.4107	12.6248
560.997	10.336	12.5799
561.185	10.3306	12.573
561.373	10.2666	12.523
561.561	10.307	12.4474
561.749	10.2232	12.4546
561.937	10.212	12.4031
562.124	10.131	12.4016
562.312	10.2051	12.3487
562.5	10.1082	12.2801
562.688	10.1306	12.3717
562.875	10.0511	12.2659
563.063	10.0334	12.2162
563.251	9.97874	12.1583
563.438	9.99667	12.1512
563.626	9.9499	12.079
563.813	9.88796	12.1195
564.001	9.81717	12.0404
564.188	9.84954	12.0001
564.376	9.86987	12.0182
564.563	9.79947	11.9999
564.751	9.69076	11.9583
564.938	9.75228	11.9183
565.126	9.71829	11.8667
565.313	9.70247	11.8771
565.5	9.64081	11.8022
565.688	9.6145	11.8782
565.875	9.61804	11.7773
566.062	9.58905	11.7521
566.249	9.57079	11.7005
566.437	9.54823	11.676
566.624	9.52214	11.6161
566.811	9.40199	11.6832
566.998	9.43859	11.584
567.185	9.41099	11.6408
567.372	9.39025	11.5805
567.559	9.38814	11.6272
567.746	9.31756	11.4979
567.933	9.32886	11.5278
568.12	9.31563	11.4506
568.307	9.33506	11.511
568.494	9.32579	11.434
568.681	9.26971	11.4156
568.868	9.22372	11.465
569.055	9.18144	11.3807
569.242	9.18775	11.3348
569.429	9.11785	11.2956
569.615	9.09851	11.2977
569.802	9.04645	11.1939
569.989	8.98687	11.2269
570.176	9.09481	11.2445
570.362	9.06424	11.2091
570.549	9.00777	11.1367
570.736	8.96533	11.1576
570.922	9.04187	11.0931
571.109	8.94844	11.0453
571.295	8.89056	11.0793
571.482	8.8414	11.0407
571.668	8.84407	11.0001
571.855	8.90857	11.0236
572.041	8.85567	10.9485
572.228	8.80815	10.9479
572.414	8.75736	10.9391
572.601	8.76399	10.9293
572.787	8.76423	10.9299
572.973	8.6848	10.8473
573.16	8.72281	10.8483
573.346	8.63201	10.8474
573.532	8.7048	10.7492
573.718	8.66429	10.7406
573.905	8.63115	10.7804
574.091	8.63299	10.6962
574.277	8.56863	10.6515
574.463	8.55194	10.6801
574.649	8.56466	10.6399
574.835	8.4999	10.6314
575.021	8.52592	10.6569
575.207	8.46766	10.5902
575.393	8.45307	10.5698
575.579	8.54556	10.5489
575.765	8.47228	10.5165
575.951	8.38414	10.5455
576.137	8.40842	10.4392
576.323	8.36739	10.4873
576.509	8.43128	10.4336
576.695	8.35544	10.4501
576.88	8.35363	10.458
577.066	8.30347	10.3158
577.252	8.3182	10.3628
577.438	8.3187	10.3241
577.623	8.28947	10.3183
577.809	8.26595	10.2605
577.995	8.28442	10.3116
578.18	8.14987	10.2475
578.366	8.15817	10.2391
578.552	8.21027	10.164
578.737	8.27918	10.2545
578.923	8.18065	10.2117
579.108	8.22006	10.2558
579.294	8.16355	10.163
579.479	8.20255	10.1957
579.665	8.11312	10.1506
579.85	8.16255	10.0264
580.035	8.09692	9.99656
580.221	8.13877	10.0475
580.406	8.0541	9.99028
580.591	8.03709	10.0434
580.777	7.99127	9.96543
580.962	8.07113	9.98084
581.147	8.00918	9.94949
581.332	7.94114	9.9217
581.517	7.92744	9.91466
581.703	7.99358	9.94025
581.888	7.96404	9.87199
582.073	7.953	9.93413
582.258	7.95527	9.85136
582.443	7.88973	9.89234
582.628	7.96641	9.81617
582.813	7.8461	9.79854
582.998	7.85273	9.72885
583.183	7.91366	9.7178
583.368	7.81063	9.7431
583.553	7.87955	9.83741
583.738	7.76427	9.68149
583.923	7.75656	9.81361
584.107	7.76214	9.70629
584.292	7.76559	9.70727
584.477	7.79929	9.64116
584.662	7.72094	9.63451
584.846	7.66893	9.62018
585.031	7.70317	9.59001
585.216	7.72372	9.61945
585.4	7.71837	9.57145
585.585	7.68627	9.55452
585.77	7.68557	9.53904
585.954	7.6365	9.50804
586.139	7.66834	9.48232
586.323	7.60575	9.55879
586.508	7.63825	9.55408
586.692	7.62641	9.44649
586.877	7.58834	9.42364
587.061	7.59185	9.50092
587.246	7.61843	9.46913
587.43	7.52934	9.35884
587.614	7.57338	9.41111
587.799	7.50457	9.39105
587.983	7.5078	9.36238
588.167	7.48139	9.32156
588.351	7.44656	9.3176
588.536	7.47446	9.32426
588.72	7.48034	9.35727
588.904	7.45181	9.34254
589.088	7.55958	9.26676
589.272	7.41029	9.21722
589.456	7.46806	9.32963
589.641	7.41059	9.21135
589.825	7.43	9.18158
590.009	7.32547	9.12607
590.193	7.41557	9.21295
590.377	7.34543	9.14653
590.561	7.30772	9.11897
590.745	7.34976	9.07686
590.928	7.27323	9.15788
591.112	7.2924	9.10671
591.296	7.37531	9.07646
591.48	7.21644	9.11836
591.664	7.29789	9.10088
591.848	7.29609	9.02502
592.031	7.20376	9.0111
592.215	7.25003	9.00899
592.399	7.22	9.01255
592.582	7.17271	9.00359
592.766	7.19544	8.97686
592.95	7.19506	8.89163
593.133	7.13334	8.97055
593.317	7.23388	8.86439
593.5	7.19195	8.87725
593.684	7.18715	8.87514
593.867	7.15131	8.90878
594.051	7.15321	8.90574
594.234	7.12407	8.84707
594.418	7.09088	8.85933
594.601	7.08937	8.78195
594.785	7.07358	8.8272
594.968	7.05748	8.84631
595.151	7.01681	8.80241
595.334	7.06443	8.82105
595.518	6.99974	8.76593
595.701	7.07694	8.75764
595.884	6.99482	8.68138
596.067	7.01431	8.76603
596.251	7.10518	8.81562
596.434	6.9481	8.7392
596.617	6.94325	8.6596
596.8	7.07193	8.67002
596.983	6.89887	8.68291
597.166	6.9662	8.75483
597.349	6.90675	8.58588
597.532	6.94252	8.66232
597.715	6.84402	8.56689
597.898	6.88137	8.64425
598.081	6.84001	8.54069
598.264	6.84843	8.60894
598.447	6.83695	8.54493
598.63	6.83304	8.55532
598.812	6.80948	8.55029
598.995	6.85029	8.56714
599.178	6.78859	8.51437
599.361	6.81511	8.46909
599.543	6.82411	8.49299
599.726	6.80028	8.52088
599.909	6.68863	8.41794
600.091	6.77579	8.44003
600.274	6.70197	8.45359
600.457	6.79857	8.43201
600.639	6.6937	8.3992
600.822	6.75384	8.39505
601.004	6.73358	8.3465
601.187	6.70675	8.41402
601.369	6.64962	8.316
601.552	6.65704	8.33554
601.734	6.64519	8.33061
601.917	6.63174	8.26939
602.099	6.59563	8.23115
602.281	6.60129	8.31221
602.464	6.59915	8.30758
602.646	6.62994	8.34939
602.828	6.60831	8.24194
603.01	6.59221	8.2524
603.193	6.55345	8.25065
603.375	6.51037	8.20296
603.557	6.54979	8.23382
603.739	6.53156	8.1776
603.921	6.51676	8.22763
604.103	6.47902	8.23408
604.285	6.54975	8.17139
604.467	6.53442	8.18227
604.65	6.47112	8.09882
604.832	6.45677	8.12183
605.013	6.49801	8.10022
605.195	6.47161	8.1335
605.377	6.49652	8.16782
605.559	6.41404	8.12252
605.741	6.42974	8.07406
605.923	6.48246	8.06246
606.105	6.39555	8.11255
606.287	6.41844	8.06008
606.468	6.37538	8.02404
606.65	6.37829	7.99211
606.832	6.41733	8.04018
607.013	6.39884	8.08095
607.195	6.31652	8.03783
607.377	6.37434	8.00551
607.558	6.37199	8.01817
607.74	6.32129	7.99681
607.922	6.31716	8.00146
608.103	6.33529	7.97579
608.285	6.3184	7.97714
608.466	6.35618	7.97822
608.648	6.24375	7.91296
608.829	6.30199	7.9575
609.01	6.245	7.89856
609.192	6.29635	7.91441
609.373	6.25581	7.92155
609.555	6.29658	7.87713
609.736	6.26426	7.93008
609.917	6.32402	7.90275
610.099	6.18896	7.87625
610.28	6.20797	7.88985
610.461	6.26818	7.86439
610.642	6.25337	7.86175
610.823	6.29382	7.81064
611.004	6.19979	7.785
611.186	6.18964	7.83278
611.367	6.18248	7.8511
611.548	6.18235	7.78572
611.729	6.21819	7.82582
611.91	6.22714	7.77618
612.091	6.16743	7.80627
612.272	6.13325	7.83671
612.453	6.1726	7.82416
612.634	6.14413	7.72001
612.815	6.1023	7.7912
612.995	6.17467	7.78838
613.176	6.15563	7.76601
613.357	6.14935	7.78047
613.538	6.05639	7.77843
613.719	6.12302	7.75038
613.899	6.10576	7.8778
614.08	6.14706	7.74009
614.261	6.1097	7.75884
614.441	6.07837	7.76744
614.622	6.07803	7.75209
614.803	6.14961	7.71811
614.983	6.14722	7.73823
615.164	6.11063	7.70495
615.344	6.13811	7.70059
615.525	6.06247	7.69111
615.705	6.12399	7.71816
615.886	6.05908	7.69148
616.066	6.08043	7.71055
616.247	6.03298	7.67305
616.427	6.02678	7.75139
616.607	6.04305	7.70687
616.788	6.11699	7.64726
616.968	6.02316	7.70858
617.148	6.09346	7.73224
617.329	6.07465	7.70508
617.509	6.0974	7.74383
617.689	6.06213	7.65907
617.869	6.11701	7.76278
618.049	6.08892	7.68402
618.23	6.1642	7.76868
618.41	6.09512	7.67404
618.59	6.15339	7.71447
618.77	6.0635	7.68861
618.95	6.10617	7.76682
619.13	6.0664	7.69816
619.31	6.09047	7.6887
619.49	6.11377	7.7494
619.67	6.06704	7.77132
619.85	6.09716	7.73843
620.03	6.11047	7.70421
620.209	6.11438	7.72228
620.389	6.19158	7.73532
620.569	6.13072	7.71515
620.749	6.1495	7.75034
620.929	6.05275	7.69932
621.108	6.08683	7.74646
621.288	6.13881	7.77087
621.468	6.13407	7.75179
621.647	6.14404	7.72431
621.827	6.16806	7.77055
622.007	6.12964	7.73265
622.186	6.14954	7.83972
622.366	6.14306	7.77976
622.545	6.18489	7.84382
622.725	6.14311	7.74387
622.904	6.23299	7.86023
623.084	6.21026	7.79979
623.263	6.21389	7.80956
623.443	6.19533	7.75535
623.622	6.244	7.7921
623.802	6.25939	7.85791
623.981	6.22975	7.80676
624.16	6.25541	7.9094
624.339	6.25807	7.8525
624.519	6.29427	7.86305
624.698	6.3103	7.86457
624.877	6.27772	7.82187
625.056	6.27865	7.88428
625.235	6.26693	7.90794
625.415	6.32106	7.96368
625.594	6.33276	7.87986
625.773	6.40389	7.92824
625.952	6.40777	7.97681
626.131	6.42675	7.95591
626.31	6.41994	7.98252
626.489	6.44889	8.065
626.668	6.38542	8.01903
626.847	6.42803	7.98814
627.026	6.43804	8.02874
627.205	6.4968	8.01507
627.383	6.49054	8.00861
627.562	6.56468	8.12774
627.741	6.44154	8.0854
627.92	6.51402	8.14312
628.099	6.51044	8.12314
628.277	6.55202	8.11745
628.456	6.53477	8.23209
628.635	6.60172	8.155
628.813	6.6534	8.19562
628.992	6.67977	8.22723
629.171	6.65267	8.28701
629.349	6.71279	8.24583
629.528	6.71569	8.2992
629.706	6.7127	8.29488
629.885	6.74821	8.26713
630.063	6.76683	8.26521
630.242	6.79323	8.31753
630.42	6.82625	8.35405
630.599	6.86624	8.38278
630.777	6.84325	8.44865
630.955	6.93788	8.39239
631.134	6.90022	8.46232
631.312	6.96841	8.44888
631.49	6.92878	8.44228
631.669	6.98938	8.5391
631.847	7.05519	8.55448
632.025	7.08335	8.47143
632.203	7.04535	8.61774
632.381	7.07699	8.6618
632.56	7.19368	8.68874
632.738	7.11072	8.63395
632.916	7.16941	8.68596
633.094	7.20424	8.6975
633.272	7.22083	8.74864
633.45	7.2273	8.73254
633.628	7.33817	8.8318
633.806	7.29943	8.74855
633.984	7.38024	8.80638
634.162	7.37036	8.85735
634.339	7.46833	8.91817
634.517	7.50622	9.02978
634.695	7.56371	8.93188
634.873	7.52463	8.95179
635.051	7.59036	8.98333
635.229	7.58551	8.98575
635.406	7.67202	9.12169
635.584	7.67067	9.06849
635.762	7.70317	9.15426
635.939	7.69164	9.1402
636.117	7.74387	9.21069
636.295	7.80736	9.23137
636.472	7.83335	9.28573
636.65	7.80339	9.21034
636.827	7.98159	9.35282
637.005	7.95236	9.31929
637.182	8.01538	9.36055
637.36	7.97265	9.46529
637.537	8.12132	9.46444
637.715	8.16958	9.52872
637.892	8.18886	9.5714
638.069	8.18876	9.49684
638.247	8.23122	9.60511
638.424	8.26789	9.61645
638.601	8.38657	9.63965
638.778	8.31708	9.64706
638.956	8.36815	9.79218
639.133	8.44505	9.76299
639.31	8.54036	9.78089
639.487	8.57067	9.85979
639.664	8.59916	9.9249
639.841	8.68516	9.94862
640.019	8.7019	9.97152
640.196	8.7356	10.0648
640.373	8.8142	10.0226
640.55	8.91587	10.1358
640.727	8.90599	10.1402
640.904	8.8936	10.1202
641.081	9.05137	10.2367
641.257	9.02214	10.2769
641.434	9.20354	10.3707
641.611	9.2149	10.3965
641.788	9.30335	10.4027
641.965	9.29037	10.4363
642.142	9.31693	10.5059
642.318	9.39871	10.5613
642.495	9.4617	10.7175
642.672	9.41301	10.5563
642.848	9.56643	10.6716
643.025	9.65202	10.6825
643.202	9.72386	10.7933
643.378	9.74031	10.8107
643.555	9.86077	10.8531
643.731	9.91733	10.9524
643.908	10.0442	11.0671
644.084	9.98571	11.0279
644.261	10.0871	11.0072
644.437	10.1446	11.134
644.614	10.158	11.1146
644.79	10.2743	11.1048
644.967	10.3426	11.3147
645.143	10.3025	11.3695
645.319	10.4269	11.3862
645.496	10.5115	11.3639
645.672	10.6726	11.5757
645.848	10.6422	11.5723
646.024	10.7475	11.6124
646.201	10.7978	11.6643
646.377	10.9815	11.7554
646.553	10.8783	11.7907
646.729	11.0095	11.8103
646.905	10.9499	11.9389
647.081	11.1798	12.046
647.257	11.2541	12.0273
647.433	11.248	12.0472
647.609	11.4282	12.1314
647.785	11.4442	12.1895
647.961	11.4815	12.251
648.137	11.6067	12.3181
648.313	11.6451	12.3117
648.489	11.7827	12.3513
648.665	11.8008	12.5466
648.841	11.8614	12.5168
649.016	12.0292	12.5619
649.192	12.1134	12.771
649.368	12.2158	12.7505
649.544	12.3142	12.8848
649.719	12.2857	12.7936
649.895	12.3836	12.9986
650.071	12.4473	12.957
650.246	12.6267	13.1275
650.422	12.601	13.087
650.597	12.7847	13.1747
650.773	12.8748	13.322
650.949	13.0144	13.2912
651.124	13.0451	13.4511
651.3	13.1406	13.515
651.475	13.0921	13.5863
651.65	13.3123	13.54
651.826	13.3234	13.6162
652.001	13.5087	13.8037
652.177	13.5803	13.8245
652.352	13.7375	13.839
652.527	13.7314	13.8386
652.702	13.9679	14.0931
652.878	14.0396	14.1371
653.053	14.0596	14.2119
653.228	14.1372	14.346
653.403	14.2632	14.4738
653.578	14.3031	14.4016
653.754	14.4736	14.4145
653.929	14.5897	14.5157
654.104	14.5854	14.6083
654.279	14.62	14.683
654.454	14.8347	14.7508
654.629	14.8988	14.8889
654.804	15.0447	14.9131
654.979	15.1345	14.9967
655.154	15.3071	15.2046
655.329	15.4172	15.1794
655.503	15.5447	15.3368
655.678	15.5063	15.2724
655.853	15.7211	15.3573
656.028	15.6868	15.5248
656.203	15.9881	15.5034
656.377	15.847	15.6136
656.552	16.1793	15.7665
656.727	16.1712	15.7485
656.902	16.432	15.9821
657.076	16.4317	16.0431
657.251	16.6053	16.0233
657.425	16.5773	16.1125
657.6	16.8163	16.2143
657.775	16.9188	16.2928
657.949	17.0291	16.4831
658.124	17.1787	16.5312
658.298	17.1882	16.6299
658.472	17.4202	16.6861
658.647	17.5282	16.7902
658.821	17.5364	16.6657
658.996	17.7755	16.8997
659.17	17.8923	16.9334
659.344	17.8992	17.1192
659.519	18.0393	17.2435
659.693	18.1721	17.351
659.867	18.4532	17.3817
660.041	18.4952	17.4107
660.216	18.5633	17.6328
660.39	18.7132	17.6828
660.564	18.8613	17.8864
660.738	19.0796	17.7788
660.912	19.0361	17.8366
661.086	19.1389	18.1177
661.26	19.2466	18.0333
661.434	19.5255	18.2361
661.608	19.6343	18.2007
661.782	19.6548	18.4999
661.956	20.0282	18.4697
662.13	19.9177	18.6369
662.304	20.0693	18.7482
662.478	20.2189	18.7952
662.652	20.5123	18.9002
662.826	20.491	19.0607
662.999	20.7364	19.2593
663.173	20.881	19.3556
663.347	21.0045	19.2976
663.521	21.1253	19.5069
663.694	21.1023	19.5529
663.868	21.3645	19.6016
664.042	21.5339	19.8138
664.215	21.6143	19.8951
664.389	21.684	19.8977
664.562	22.0315	20.2453
664.736	22.0849	20.206
664.909	22.4344	20.3363
665.083	22.2987	20.4114
665.256	22.5551	20.5874
665.43	22.6106	20.6962
665.603	22.9662	20.8016
665.777	23.0399	20.9265
665.95	23.1636	20.9073
666.123	23.3403	20.9339
666.297	23.5048	21.2303
666.47	23.6509	21.2511
666.643	23.8233	21.6028
666.816	23.8685	21.4239
666.99	23.99	21.4775
667.163	24.0661	21.6732
667.336	24.4162	21.9884
667.509	24.6269	22.1224
667.682	24.7021	22.1816
667.855	24.7191	22.2877
668.029	24.9844	22.3883
668.202	25.1289	22.4555
668.375	25.4672	22.6486
668.548	25.3502	22.5939
668.721	25.6767	22.6423
668.893	25.7113	22.8743
669.066	25.9031	23.051
669.239	26.2477	23.1618
669.412	26.287	23.396
669.585	26.5097	23.375
669.758	26.4975	23.5442
669.931	26.6325	23.5187
670.103	26.911	23.8966
670.276	26.941	23.9293
670.449	27.384	24.2847
670.622	27.406	24.2022
670.794	27.5621	24.3756
670.967	27.6534	24.3911
671.139	27.8411	24.5676
671.312	28.0594	24.7507
671.485	28.2941	24.8528
671.657	28.696	24.9149
671.83	28.6485	25.0047
672.002	28.7599	25.3251
672.175	28.9846	25.4861
672.347	29.3403	25.4211
672.519	29.5548	25.8656
672.692	29.4552	25.7873
672.864	29.7994	26.036
673.037	29.9582	26.045
673.209	30.0473	26.2095
673.381	30.3332	26.333
673.553	30.487	26.337
673.726	30.6506	26.7459
673.898	30.8513	26.9549
674.07	31.0352	26.7681
674.242	31.2326	27.084
674.414	31.3951	27.0919
674.587	31.6824	27.4192
674.759	31.5396	27.4527
674.931	31.893	27.8278
675.103	32.059	27.6443
675.275	32.2894	27.9254
675.447	32.3155	28.0477
675.619	32.6826	28.1454
675.791	32.9194	28.4526
675.963	33.0228	28.4475
676.134	33.105	28.6544
676.306	33.5503	28.8869
676.478	33.5179	29.0192
676.65	33.964	29.1387
676.822	33.8799	29.2399
676.994	34.3628	29.4059
677.165	34.4	29.4898
677.337	34.6893	29.7366
677.509	34.8941	29.969
677.68	35.099	30.0068
677.852	35.2637	30.277
678.024	35.3965	30.3073
678.195	35.5636	30.4802
678.367	35.9834	30.5274
678.538	35.8736	30.7355
678.71	36.4676	31.1497
678.881	36.345	31.2769
679.053	36.7239	31.5191
679.224	36.7925	31.2291
679.396	37.2643	31.7666
679.567	37.1416	31.7001
679.738	37.5383	31.9789
679.91	37.7898	32.0277
680.081	37.9993	32.2717
680.252	37.9765	32.2923
680.424	38.1693	32.514
680.595	38.8123	32.7789
680.766	38.6015	32.9465
680.937	39.2155	33.1175
681.108	39.2353	33.387
681.28	39.3836	33.3296
681.451	39.9461	33.955
681.622	39.7641	33.6498
681.793	40.0793	34.0776
681.964	40.382	34.3667
682.135	40.6179	34.345
682.306	40.7618	34.5992
682.477	40.6819	34.7311
682.648	41.1436	34.8108
682.819	41.4136	35.0917
682.99	41.4605	35.0003
683.16	41.8633	35.6525
683.331	42.2256	35.5517
683.502	42.3095	35.641
683.673	42.5042	35.8192
683.844	42.9508	36.1874
684.014	42.7674	36.1815
684.185	43.053	36.2231
684.356	43.2926	36.7494
684.526	43.418	36.8614
684.697	43.9959	36.756
684.868	43.956	37.0454
685.038	44.0256	37.4969
685.209	44.8339	37.7139
685.379	45.1277	37.5707
685.55	45.151	37.8648
685.72	45.4309	38.1707
685.891	45.7191	38.378
686.061	45.7602	38.5699
686.232	46.0516	39.0572
686.402	46.3361	39.0037
686.572	46.4387	39.2963
686.743	46.5661	38.9558
686.913	46.8571	39.7009
687.083	47.371	39.7311
687.254	47.5841	39.9462
687.424	47.4875	40.1127
687.594	48.1395	40.3698
687.764	48.3707	40.4435
687.934	48.273	40.8807
688.104	48.6724	40.8683
688.275	49.2945	41.2697
688.445	49.2196	41.5412
688.615	49.1057	41.3927
688.785	49.6528	41.679
688.955	49.8258	41.732
689.125	50.2026	42.1466
689.295	50.1571	42.1446
689.465	50.2353	42.4992
689.635	50.7976	42.6596
689.805	50.622	42.4256
689.974	51.299	42.9388
690.144	51.2985	43.3737
690.314	51.4678	43.3756
690.484	52.0125	43.4273
690.654	52.2076	43.7042
690.823	52.1652	43.834
690.993	52.4207	44.2649
691.163	52.8279	44.4477
691.332	53.3627	44.6708
691.502	53.5503	45.0828
691.672	53.8336	45.1404
691.841	53.9322	45.063
692.011	53.8534	45.5228
692.18	54.549	45.6823
692.35	54.6126	46.1192
692.519	54.7445	46.1401
692.689	55.3547	46.2725
692.858	55.3087	46.4624
693.027	55.3217	46.9306
693.197	55.9522	46.7595
693.366	56.0224	47.2925
693.536	56.2817	47.3238
693.705	56.6621	47.7757
693.874	56.81	48.0561
694.043	57.1658	48.3691
694.213	57.3017	48.5819
694.382	57.3111	48.3267
694.551	58.0055	48.7637
694.72	58.5335	49.2792
694.889	58.6131	49.2553
695.058	58.6962	49.454
695.228	59.0193	49.3901
695.397	59.3265	49.9809
695.566	59.0161	50.0853
695.735	59.3489	50.2024
695.904	59.6269	50.3637
696.073	59.9749	50.6347
696.242	60.4543	50.51
696.41	60.8776	51.207
696.579	60.9757	51.6361
696.748	61.239	51.5834
696.917	60.9958	51.8117
697.086	61.9452	52.2364
697.255	61.8642	51.9192
697.423	62.2424	51.9755
697.592	62.2003	52.9442
697.761	62.7056	52.9013
697.929	62.427	52.8319
698.098	63.24	53.1789
698.267	63.54	53.1504
698.435	64.1511	54.0016
698.604	63.7723	53.8981
698.772	63.8822	54.0475
698.941	64.5341	53.9937
699.109	64.6647	54.7741
699.278	64.9396	54.7443
699.446	64.9074	54.9168
699.615	65.4969	55.5547
699.783	65.7331	55.191
699.952	65.5266	55.7839
700.12	65.9365	56.1592
700.288	66.8901	56.1635
700.457	66.0364	56.2724
700.625	66.6047	56.913
700.793	67.0909	57.4967
700.961	67.0438	56.8699
701.13	67.6604	57.8259
701.298	68.02	57.4661
701.466	68.0374	57.4922
701.634	68.4062	57.9806
701.802	68.4291	58.2568
701.97	68.3883	58.3741
702.138	68.9729	58.2794
702.306	69.5922	58.5159
702.474	69.6009	59.9595
702.642	68.9402	58.8151
702.81	69.5608	59.0372
702.978	70.3007	59.9026
703.146	70.9897	60.0149
703.314	70.8622	59.7084
703.482	71.2415	60.6187
703.65	71.7859	60.6415
703.818	71.2365	60.9226
703.985	71.4894	60.6855
704.153	72.1689	61.3192
704.321	71.9967	61.0101
704.488	72.3945	61.6819
704.656	72.2019	61.3599
704.824	72.4852	61.5003
704.991	73.0724	62.4924
705.159	73.3446	62.7613
705.327	73.3134	63.1157
705.494	73.2221	63.6583
705.662	73.8583	62.8313
705.829	74.5667	63.6698
705.997	74.6015	63.4898
706.164	74.9051	64.1468
706.332	73.8389	63.5856
706.499	75.8445	64.3805
706.666	74.5566	64.3574
706.834	75.4755	64.8341
707.001	74.896	64.6444
707.168	76.0003	65.5518
707.336	76.0752	65.3278
707.503	76.5373	65.6903
707.67	76.8136	65.1832
707.837	77.1193	66.373
708.004	76.6586	65.932
708.172	77.0299	66.0823
708.339	78.0147	66.7398
708.506	77.2818	66.5028
708.673	78.039	67.1709
708.84	78.2524	67.7499
709.007	78.591	67.3793
709.174	77.7752	67.8088
709.341	78.4481	66.6552
709.508	78.9186	67.5794
709.675	78.7939	67.5282
709.842	79.55	69.1339
710.009	80.0065	68.0205
710.175	79.7824	69.5407
710.342	80.2766	68.272
710.509	80.2274	70.025
710.676	80.945	69.8824
710.843	80.4065	69.551
711.009	80.3466	69.6669
711.176	81.2857	70.5012
711.343	80.33	69.5925
711.509	81.4422	69.7429
711.676	81.9272	70.3979
711.843	81.7922	70.1442
712.009	81.7117	71.5836
712.176	83.2065	71.7224
712.342	82.8952	70.5976
712.509	82.8817	72.3728
712.675	82.0882	70.4459
712.842	83.0557	72.0578
713.008	83.693	72.5961
713.174	83.2012	72.5734
713.341	83.6549	72.2645
713.507	84.5579	72.8444
713.673	84.2848	72.1059
713.84	84.3737	73.4049
714.006	83.6679	72.7118
714.172	84.7801	73.4705
714.339	85.4994	74.1885
714.505	85.3703	74.3736
714.671	84.7463	74.1336
714.837	84.8268	73.6257
715.003	85.3624	75.2568
715.169	84.8354	73.8806
715.335	86.6816	74.4679
715.501	86.5213	75.8837
715.667	87.2634	75.1511
715.833	86.2274	75.2107
715.999	86.3223	75.7037
716.165	86.0128	74.7172
716.331	87.8691	76.5777
716.497	87.2066	76.2137
716.663	86.7554	76.1802
716.829	87.5863	75.7595
716.995	87.8302	75.7151
717.161	88.9516	77.6385
717.326	88.5173	77.3344
717.492	87.9879	76.5891
717.658	89.8571	77.3451
717.823	89.2096	78.5138
717.989	88.3451	77.4254
718.155	88.5816	78.1312
718.32	89.2645	78.7191
718.486	88.5597	77.6931
718.651	89.0607	76.9305
718.817	90.6441	79.2602
718.983	89.4622	78.1695
719.148	90.1903	79.054
719.314	90.3645	78.8615
719.479	90.2012	80.0982
719.644	90.649	79.3338
719.81	91.2176	79.1972
719.975	89.8873	80.124
720.141	91.3084	79.0493
720.306	91.1121	79.468
720.471	91.8759	80.432
720.636	92.38	80.6832
720.802	91.2971	80.1496
720.967	91.4407	80.2852
721.132	91.3023	81.0432
721.297	91.5543	80.3755
721.462	89.9123	78.807
721.628	91.1465	79.8654
721.793	91.4197	81.0305
721.958	92.5604	81.073
722.123	92.424	80.4874
722.288	92.605	81.334
722.453	93.0173	83.1988
722.618	93.6569	81.5224
722.783	93.6375	82.1554
722.948	93.4494	82.6718
723.112	95.1852	82.4797
723.277	94.3017	82.7116
723.442	94.0885	81.6864
723.607	93.7841	83.1018
723.772	94.1767	83.0869
723.937	94.136	82.282
724.101	93.4643	82.3926
724.266	93.0519	82.2407
724.431	95.2213	83.6658
724.595	93.8926	83.5024
724.76	93.6776	84.4229
724.925	94.3427	81.4391
725.089	95.6479	84.9519
725.254	95.6048	85.6392
725.418	94.3145	83.3008
725.583	96.1816	85.7663
725.747	96.839	86.2061
725.912	95.472	85.6463
726.076	95.3604	84.4997
726.241	95.1978	84.7028
726.405	97.1136	86.0333
726.57	96.2198	84.8094
726.734	97.3449	85.7927
726.898	96.7976	83.6416
727.062	99.0968	88.775
727.227	95.8063	85.9324
727.391	97.6877	85.8866
727.555	95.1724	84.1529
727.719	97.5414	86.6416
727.884	96.4929	84.2852
728.048	98.3729	85.5397
728.212	98.3873	87.9186
728.376	97.1618	87.4942
728.54	99.1527	87.902
728.704	96.2874	87.3701
728.868	97.5351	88.4178
729.032	99.7497	89.8595
729.196	97.3559	87.2281
729.36	98.8692	88.0768
729.524	100.162	87.6204
729.688	97.1477	87.0516
729.852	100.038	88.4497
730.015	99.9658	88.9524
730.179	95.943	88.0672
730.343	96.8655	88.9034
730.507	99.8655	88.4358
730.671	100.838	89.1104
730.834	100.308	90.5378
730.998	102.12	88.8593
731.162	99.8108	90.5064
731.325	101.3	88.4836
731.489	101.285	90.2922
731.652	99.4058	88.8169
731.816	99.7554	91.7244
731.98	103.189	91.0029
732.143	101.005	90.8365
732.307	103.711	91.5761
732.47	99.9584	89.0908
732.633	99.9672	91.5315
732.797	101.891	91.8936
732.96	102.283	91.5113
733.124	100.902	92.8087
733.287	102.362	94.1461
733.45	100.347	89.2657
733.614	102.87	91.932
733.777	104.76	94.3272
733.94	102.301	92.6075
734.103	103.312	90.8739
734.266	102.342	90.8794
734.43	103.28	92.1316
734.593	104.165	94.0811
734.756	103.513	93.6319
734.919	103.667	91.9793
735.082	104.859	92.3537
735.245	106.587	95.2669
735.408	105.312	94.5997
735.571	106.159	95.2336
735.734	103.358	92.8386
735.897	105.845	93.5414
736.06	103.771	94.0669
736.223	107.627	94.8362
736.386	104.724	94.643
736.549	105.636	97.0349
736.711	107.239	95.7613
736.874	103.304	94.7225
737.037	103.872	94.9648
737.2	107.119	97.2939
737.362	108.76	97.803
737.525	106.755	96.3606
737.688	106.403	96.2015
737.85	103.981	95.3954
738.013	106.385	97.4629
738.176	107.167	99.8384
738.338	106.111	95.2516
738.501	109.595	95.5012
738.663	108.536	97.7326
738.826	108.947	97.0585
738.988	108.509	95.8054
739.151	107.686	96.7178
739.313	107.475	96.3674
739.475	109.262	98.4935
739.638	107.147	99.4406
739.8	114.441	100.141
739.962	110.505	99.7809
740.125	109.558	99.8308
740.287	111.31	98.1615
740.449	107.647	99.0484
740.611	110.313	96.5026
740.774	110.92	98.5409
740.936	112.047	100.941
741.098	111.717	101.273
741.26	113.246	103.703
741.422	110.262	100.402
741.584	113.171	100.729
741.746	112.605	101.208
741.908	113.381	103.935
742.07	112.787	102.402
742.232	110.263	98.5721
742.394	113.808	103.351
742.556	115.732	102.853
742.718	115.601	103.203
742.88	112.261	101.95
743.042	115.246	106.011
743.203	116.753	102.802
743.365	113.998	104.091
743.527	111.711	102.663
743.689	112.531	100.221
743.85	115.337	103.363
744.012	111.396	104.107
744.174	116.242	102.576
744.335	117.2	107.247
744.497	114.964	104.254
744.658	115.589	102.853
744.82	111.68	103.462
744.982	112.621	103.235
745.143	118.467	108.303
745.305	113.656	103.212
745.466	115.408	103.129
745.627	115.283	105.092
745.789	119.796	103.824
745.95	114.735	103.445
746.112	115.668	106.167
746.273	112.763	102.756
746.434	115.488	104.679
746.596	115.603	105.369
746.757	115.902	105.568
746.918	115.914	107.359
747.079	114.968	104.642
747.24	117.898	106.136
747.402	117.277	107.378
747.563	115.858	109.21
747.724	116.213	107.838
747.885	116.573	104.904
748.046	117.437	106.976
748.207	118.811	106.635
748.368	117.73	106.779
748.529	118.112	106.61
748.69	115.365	105.01
748.851	117.189	108.646
749.012	119.1	108.47
749.173	113.891	106.455
749.334	117.23	107.817
749.494	124.803	111.502
749.655	120.785	112.41
749.816	120.728	109.757
749.977	118.482	109.697
750.137	121.066	110.39
750.298	117.739	107.928
750.459	120.06	110.349
750.62	124.136	113.048
750.78	124.935	114.952
750.941	119.55	108.054
751.101	119.555	109.652
751.262	119.669	108.918
751.422	119.623	109.454
751.583	123.117	112.978
751.743	121.931	110.007
751.904	124.244	111.529
752.064	122.145	109.892
752.225	120.735	111.597
752.385	126.11	114.55
752.545	118.599	111.265
752.706	122.646	114.266
752.866	124.353	112.298
753.026	121.443	111.128
753.187	122.186	110.62
753.347	124.003	114.217
753.507	123.988	112.529
753.667	125.033	112.105
753.827	124.528	115.352
753.988	122.614	110.487
754.148	123.289	113.87
754.308	123.554	112.881
754.468	124.596	112.294
754.628	129.955	115.847
754.788	123.875	113.173
754.948	127.608	115.189
755.108	124.696	114.333
755.268	125.739	115.346
755.428	125.428	112.506
755.587	125.808	112.355
755.747	127.402	111.376
755.907	128.371	112.026
756.067	127.476	115.78
756.227	126.72	114.518
756.386	117.633	110.901
756.546	125.825	116.778
756.706	126.609	114.913
756.866	128.65	116.054
757.025	127.733	116.472
757.185	127.812	115.312
757.344	129.255	117.18
757.504	126.899	121.577
757.664	128.391	114.076
757.823	126.921	115.649
757.983	131.638	121.37
758.142	129.279	119.678
758.302	126.191	113.579
758.461	127.63	118.891
758.62	129.215	116.76
758.78	122.6	111.201
758.939	127.252	121.515
759.098	129.029	118.85
759.258	121.145	115.955
759.417	128.207	113.119
759.576	130.054	115.957
759.735	124.597	117.022
759.895	126.498	118.64
760.054	129.035	121.009
760.213	124.849	115.713
760.372	127.372	120.862
760.531	124.816	108.786
760.69	126.382	117.662
760.849	128.731	118.535
761.008	126.335	116.536
761.167	134.633	119.817
761.326	129.629	115.176
761.485	125.483	116.573
761.644	134.895	120.827
761.803	124.573	117.187
761.962	134.054	118.933
762.121	130.573	118.289
762.28	131.78	121.825
762.439	123.795	113.164
762.597	129.969	122.388
762.756	133.359	114.719
762.915	128.258	117.789
763.073	136.971	121.976
763.232	126.494	117.598
763.391	132.537	118.209
763.549	130.35	123.461
763.708	132.954	116.905
763.867	130.628	121.325
764.025	134.562	120.842
764.184	0	0
764.342	132.596	118.318
764.501	131.109	123.565
764.659	0	0
764.818	124.228	119.137
764.976	0	0
765.134	127.012	118.72
765.293	0	0
765.451	126.598	118.087
765.609	127.621	114.941
765.768	0	0
765.926	0	0
766.084	0	0
766.242	0	0
766.4	0	0
766.559	0	0
766.717	0	0
766.875	0	0
767.033	0	0
767.191	0	0
767.349	0	0
767.507	0	0
767.665	0	0
767.823	0	0
767.981	0	0
768.139	0	0
768.297	0	0
768.454	0	0
768.612	0	0
768.77	0	0
768.928	0	0
769.086	0	0
769.243	0	0
769.401	0	0
769.559	0	0
769.716	0	0
769.874	0	0
770.031	0	0
770.189	0	0
770.347	0	0
770.504	0	0
770.662	0	0
770.819	0	0
770.977	0	0
771.134	0	0
771.291	0	0
771.449	0	0
771.606	0	0
771.763	0	0
771.921	0	0
772.078	0	0
772.235	0	0
772.393	0	0
772.55	0	0
772.707	0	0
772.864	0	0
773.021	0	0
773.178	0	0
773.335	0	0
773.492	0	0
773.649	0	0
773.806	0	0
773.963	0	0
774.12	0	0
774.277	0	0
774.434	0	0
774.591	0	0
774.748	0	0
774.905	0	0
775.061	0	0
775.218	0	0
775.375	0	0
775.532	0	0
775.688	0	0
775.845	0	0
776.002	0	0
776.158	0	0
776.315	0	0
776.471	0	0
776.628	0	0
776.784	0	0
776.941	0	0
777.097	0	0
777.254	0	0
777.41	0	0
777.567	0	0
777.723	0	0
777.879	0	0
778.036	0	0
778.192	0	0
778.348	0	0
778.505	0	0
778.661	0	0
778.817	0	0
778.973	0	0
779.129	0	0
779.285	0	0
779.442	0	0
779.598	0	0
779.754	0	0
779.91	0	0
780.066	0	0
780.222	0	0
780.378	0	0
780.533	0	0
780.689	0	0
780.845	0	0
781.001	0	0
781.157	0	0
781.313	0	0
781.468	0	0
781.624	0	0
781.78	0	0
781.936	0	0
782.091	0	0
782.247	0	0
782.403	0	0
782.558	0	0
782.714	0	0
782.869	0	0
783.025	0	0
783.18	0	0
783.336	0	0
783.491	0	0
783.647	0	0
783.802	0	0
783.957	0	0
784.113	0	0
784.268	0	0
784.423	0	0
784.578	0	0
784.734	0	0
784.889	0	0
785.044	0	0
785.199	0	0
785.354	0	0
785.51	0	0
785.665	0	0
785.82	0	0
785.975	0	0
786.13	0	0
786.285	0	0
786.44	0	0
786.595	0	0
786.75	0	0
786.905	0	0
787.059	0	0
787.214	0	0
787.369	0	0
787.524	0	0
787.679	0	0
787.833	0	0
787.988	0	0
788.143	0	0
788.297	0	0
788.452	0	0
788.607	0	0
788.761	0	0
788.916	0	0
789.07	0	0
789.225	0	0
789.379	0	0
789.534	0	0
789.688	0	0
789.843	0	0
789.997	0	0
790.151	0	0
790.306	0	0
790.46	0	0
790.614	0	0
790.769	0	0
790.923	0	0
791.077	0	0
791.231	0	0
791.385	0	0
791.54	0	0
791.694	0	0
791.848	0	0
792.002	0	0
792.156	0	0
792.31	0	0
792.464	0	0
792.618	0	0
792.772	0	0
792.926	0	0
793.08	0	0
793.233	0	0
793.387	0	0
793.541	0	0
793.695	0	0
793.849	0	0
794.002	0	0
794.156	0	0
794.31	0	0
794.463	0	0
794.617	0	0
794.771	0	0
794.924	0	0
795.078	0	0
795.231	0	0
795.385	0	0
795.538	0	0
795.692	0	0
795.845	0	0
795.999	0	0
796.152	0	0
796.305	0	0
796.459	0	0
796.612	0	0
796.765	0	0
796.919	0	0
797.072	0	0
797.225	0	0
797.378	0	0
797.531	0	0
797.685	0	0
797.838	0	0
797.991	0	0
798.144	0	0
798.297	0	0
798.45	0	0
798.603	0	0
798.756	0	0
798.909	0	0
799.062	0	0
799.214	0	0
799.367	0	0
799.52	0	0
799.673	0	0
799.826	0	0
799.979	0	0
800.131	0	0
800.284	0	0
800.437	0	0
800.589	0	0
800.742	0	0
800.895	0	0
801.047	0	0
801.2	0	0
801.352	0	0
801.505	0	0
801.657	0	0
801.81	0	0
801.962	0	0
802.115	0	0
802.267	0	0
802.419	0	0
802.572	0	0
802.724	0	0
802.876	0	0
803.028	0	0
803.181	0	0
803.333	0	0
803.485	0	0
803.637	0	0
803.789	0	0
803.941	0	0
804.094	0	0
804.246	0	0
804.398	0	0
804.55	0	0
804.702	0	0
804.854	0	0
805.005	0	0
805.157	0	0
805.309	0	0
805.461	0	0
805.613	0	0
805.765	0	0
805.917	0	0
806.068	0	0
806.22	0	0
806.372	0	0
806.523	0	0
806.675	0	0
806.827	0	0
806.978	0	0
807.13	0	0
807.281	0	0
807.433	0	0
807.584	0	0
807.736	0	0
807.887	0	0
808.039	0	0
808.19	0	0
808.342	0	0
808.493	0	0
808.644	0	0
808.796	0	0
808.947	0	0
809.098	0	0
809.249	0	0
