#Changer LED: 1
#Wavelength [nm]	White Std. spectrum	Dark specetrum	Sample spectrum0[s]	Sample spectrum95.091[s]	Sample spectrum125.088[s]
380.024	26.8946	-2.03234	4.80212	3.49369	3.23239	
380.235	26.6742	0.628653	3.14391	4.08141	3.34766	
380.446	26.4788	1.12329	5.66444	0	4.19872	
380.656	26.7383	-0.458534	4.70507	6.45769	4.87957	
380.867	26.4182	-1.75159	3.25551	6.10168	3.29914	
381.078	26.1229	-0.424292	2.86976	10.8387	4.92564	
381.288	27.0529	-0.248104	5.22292	3.56889	5.27127	
381.499	25.7086	0.0286607	4.26216	1.34705	3.31254	
381.709	25.827	1.09436	3.68213	0	5.19077	
381.92	25.4668	0.475127	2.78298	4.39968	2.46623	
382.13	25.0389	0.320046	3.67739	6.64566	4.60239	
382.34	26.081	-0.28421	4.36042	7.65473	4.64463	
382.551	27.705	-1.89154	4.7756	3.77367	4.96444	
382.761	24.2544	0.25265	3.32126	4.52899	3.81034	
382.972	26.836	-1.48671	4.16529	0	3.36862	
383.182	25.4868	0.514412	5.25947	0	4.02114	
383.392	25.8362	0.0931034	2.49455	4.57138	3.62048	
383.603	25.5262	-0.230548	3.89164	6.62132	5.16303	
383.813	26.0257	-1.19669	5.59978	8.61434	5.84764	
384.023	25.843	-1.11329	2.52833	5.89498	3.40558	
384.233	24.5895	-0.89317	3.99921	6.50738	3.83881	
384.443	24.435	-0.943648	1.86431	2.05062	3.92461	
384.654	25.9545	-0.606117	3.84718	1.65551	3.60594	
384.864	25.4412	-1.22046	3.67275	4.47802	4.50913	
385.074	25.9598	-1.24046	3.16108	4.2697	4.68918	
385.284	24.2311	0.614686	2.89111	7.91075	3.65605	
385.494	25.7303	-0.436107	5.51215	7.70752	5.89783	
385.704	25.442	-1.40702	4.18839	6.7234	6.66403	
385.914	24.8988	-0.694601	3.51931	6.25141	3.84465	
386.124	25.067	-0.675566	3.14731	0.257782	5.0703	
386.334	25.4235	-0.737815	4.05235	7.99152	4.67283	
386.544	22.596	2.3012	2.39384	5.19541	4.92339	
386.754	23.8406	0.626687	4.62513	0.926791	5.74905	
386.964	24.6896	-1.38198	3.88017	5.55449	3.94159	
387.173	26.2026	-2.77211	3.71556	4.42301	4.65725	
387.383	25.9411	0.923015	3.50687	3.35802	3.34981	
387.593	24.9214	-1.29025	4.3798	10.216	4.73329	
387.803	24.1693	-1.38035	2.17456	10.4273	2.93653	
388.013	24.4342	-0.692857	3.26841	0	2.50832	
388.222	23.0118	0.298627	3.61455	8.72166	2.97046	
388.432	24.8192	-1.18815	3.03815	1.48739	4.68513	
388.642	24.5595	0.552588	3.60089	9.89396	3.93887	
388.851	23.8009	0.897151	4.01079	5.54123	4.34503	
389.061	25.2755	-0.761415	2.10454	1.95167	2.06195	
389.271	24.3455	1.85103	2.5556	6.69016	4.95136	
389.48	25.7064	-1.4967	4.52686	0	3.06283	
389.69	24.8694	-0.455195	4.30217	5.45358	4.93069	
389.899	24.041	0.383402	3.10614	7.6419	3.00796	
390.109	25.1204	-0.600384	2.63125	5.44696	3.1684	
390.318	24.3484	0.323364	4.56205	5.85551	3.63566	
390.528	24.8307	-0.383217	4.57538	7.79498	5.01085	
390.737	24.1798	0.139214	2.54994	2.94961	4.0871	
390.947	24.8645	-1.32818	3.78732	10.4961	4.84182	
391.156	25.057	-0.70163	2.82582	3.97298	3.99871	
391.365	24.8079	-0.739366	3.26423	9.03766	3.92473	
391.575	24.5787	0.68612	2.39476	5.00259	3.72647	
391.784	24.9423	-1.70672	5.73526	7.81451	5.79302	
391.993	24.1619	0.572187	2.87943	0	3.56605	
392.202	25.7725	-0.843147	3.96134	1.11261	3.06315	
392.412	24.6217	0.517264	4.04155	0	3.89097	
392.621	24.5893	-1.83425	5.71846	8.46175	6.32757	
392.83	24.5757	0.484932	5.78686	8.14859	4.49832	
393.039	25.5861	-1.26458	5.09412	2.79766	4.22797	
393.248	24.1011	1.47011	5.10214	0	3.02669	
393.457	26.5335	0.44353	3.7616	8.48794	5.03711	
393.666	24.9551	-0.461325	5.68097	8.4083	3.6906	
393.876	26.3411	-1.94156	6.5366	0	5.46296	
394.085	26.452	-0.307479	3.50995	6.68548	3.76706	
394.294	25.9058	0.620131	5.03791	6.1489	4.75143	
394.503	25.4299	1.72346	4.29342	7.89628	5.02618	
394.711	25.4557	-0.674266	6.00593	2.61825	5.39179	
394.92	26.5996	-0.699524	5.01119	5.33941	4.71603	
395.129	27.2392	0.654447	5.14124	0	4.8376	
395.338	27.3482	1.53354	5.24695	6.06366	5.60066	
395.547	28.1886	-2.5318	5.63713	2.93297	5.35245	
395.756	26.6719	0.542147	4.78749	5.06597	6.63612	
395.965	26.0132	-0.47682	3.94936	0	6.18218	
396.173	27.0672	-0.399352	4.57095	9.8418	5.60098	
396.382	27.811	-0.988521	3.47395	4.12178	5.09265	
396.591	27.8504	0.36342	4.0703	10.8494	4.46859	
396.8	27.6641	-0.510144	5.61517	9.81804	6.65753	
397.008	28.2419	2.39066	3.20242	0	3.63059	
397.217	29.7594	0.847212	4.31157	9.30149	6.48994	
397.426	28.7425	1.23144	3.23267	9.64626	4.38142	
397.634	28.6031	-0.473591	4.43448	8.38167	5.99763	
397.843	29.5437	-1.56719	4.32305	12.6002	4.4126	
398.051	28.5055	-1.60053	6.18692	11.4719	6.79256	
398.26	28.4686	0.477479	4.12734	8.83787	5.20843	
398.468	30.4382	-0.388151	6.71832	10.6335	6.57148	
398.677	30.1682	0.0725634	5.87884	4.81639	5.33038	
398.885	32.0003	-1.29202	7.37908	5.65032	6.42614	
399.094	31.0242	-0.33712	3.79883	8.81069	5.75291	
399.302	30.2997	-0.47244	5.75105	4.2247	5.93275	
399.51	30.2284	-0.327975	4.69369	10.6501	7.35879	
399.719	33.3514	-2.12187	6.45688	10.7635	6.4871	
399.927	33.0093	1.36168	5.29624	7.41157	5.93596	
400.135	32.5053	0.932117	5.50985	8.18801	7.33753	
400.344	32.6948	-0.383892	6.43476	6.5353	6.41343	
400.552	34.671	-1.69194	3.50033	1.43586	5.18129	
400.76	32.7175	-0.0638658	5.97297	9.10543	6.39874	
400.968	36.2338	-0.311098	8.68939	6.15791	7.15037	
401.176	32.3753	-0.650437	5.96692	8.59309	7.43269	
401.385	35.3021	-1.03319	7.90404	7.85406	8.95125	
401.593	35.5243	1.40502	7.36351	2.0758	8.57213	
401.801	36.2384	-2.22182	6.66849	7.34561	6.94659	
402.009	35.6688	1.18956	7.37348	6.10219	6.74147	
402.217	37.1514	0.664393	8.49453	5.23324	7.25069	
402.425	37.9843	-1.05813	7.33881	3.14727	8.45422	
402.633	37.086	-2.75824	5.79321	10.596	7.86508	
402.841	39.9334	-1.37826	7.05332	18.6972	10.0226	
403.049	40.1747	-0.297992	8.09695	18.1504	10.0535	
403.257	39.8926	0.180673	7.7328	13.8757	8.57594	
403.465	40.9405	-1.26343	8.00471	12.5447	8.81116	
403.673	41.4279	1.6829	10.8254	9.27384	10.8254	
403.88	42.412	1.16088	10.2736	14.4977	8.5013	
404.088	43.5091	2.68268	10.0615	10.5353	10.2096	
404.296	43.87	1.70807	10.8945	9.74398	13.0185	
404.504	44.0337	1.70945	11.7821	9.06448	12.571	
404.712	46.9171	-0.420703	11.8702	6.93283	11.4028	
404.919	46.7398	1.4309	11.1273	9.61495	12.2906	
405.127	47.9365	0.0869044	11.8248	11.8538	11.2454	
405.335	48.3729	-0.578644	13.7694	18.7498	13.3376	
405.542	49.8113	0.509866	15.7828	11.6059	14.1409	
405.75	51.7567	0.687454	14.7316	21.0619	15.1039	
405.958	51.6426	0.0681301	12.8681	19.8514	14.6281	
406.165	51.9085	2.87622	14.7282	19.1947	14.7566	
406.373	54.7611	-0.577864	14.6109	10.0786	14.5259	
406.58	54.9563	3.1618	13.7517	14.7635	14.6792	
406.788	57.6439	-2.01682	15.3273	18.5058	15.8055	
406.995	56.8358	-0.0840518	15.2162	12.3304	14.4877	
407.203	59.4132	0.411309	17.1043	22.7563	17.8877	
407.41	60.829	0.11756	17.4241	13.1416	18.2078	
407.617	61.868	1.60176	18.7206	20.0554	18.804	
407.825	64.0135	0.758889	18.8054	20.1397	18.722	
408.032	64.725	-2.10683	20.1154	17.1686	18.0498	
408.239	66.4634	-1.65275	18.7859	22.9247	19.3615	
408.447	68.7931	-0.664153	20.4357	14.5868	19.6977	
408.654	70.5686	-0.589778	21.587	19.4299	21.0136	
408.861	74.1729	-0.146877	20.7913	23.1576	23.2664	
409.068	75.1969	-0.203125	23.1481	26.8044	21.9294	
409.276	76.9286	-1.22969	23.3183	20.2171	22.6441	
409.483	79.0614	0.194214	23.5754	26.2998	23.3597	
409.69	81.1512	0.715661	25.7933	20.0305	25.7933	
409.897	82.8763	1.0909	25.7695	30.1332	26.4699	
410.104	85.381	-0.639978	28.455	25.0951	27.0684	
410.311	88.3752	0.59162	29.4317	32.683	28.9787	
410.518	90.1609	-1.17349	31.2113	28.0925	29.9426	
410.725	93.5488	0.482373	31.0327	27.606	31.349	
410.932	95.385	-0.166176	31.4204	28.7564	29.2311	
411.139	98.4555	-0.869469	32.7895	31.5775	32.1045	
411.346	101.814	0.0157059	35.7074	29.8177	34.2153	
411.553	104.439	0.157287	37.2797	40.6351	34.0029	
411.76	108.147	-1.01474	37.3423	33.7517	34.3761	
411.967	111.094	-0.187014	38.8964	45.0003	38.0392	
412.174	113.919	-0.71185	40.0261	43.0437	37.8338	
412.381	116.644	0.85147	42.3723	37.5731	38.8116	
412.587	119.275	0.252944	43.4068	50.3053	42.5381	
412.794	124.236	-1.40041	44.9156	41.8891	41.9917	
413.001	127.03	0.749577	45.0281	46.8638	45.0281	
413.208	131.081	-0.137546	48.7624	52.4049	46.8011	
413.414	134.248	-0.723649	50.0054	43.7084	47.5171	
413.621	138.561	-0.212774	52.3119	51.856	48.3351	
413.828	141.274	0.612656	50.9286	43.6423	49.2646	
414.034	147.524	-0.955831	53.835	53.3293	50.6995	
414.241	150.858	-0.493099	57.8949	56.7064	54.3041	
414.447	155.006	0.28656	57.3572	53.3604	53.8631	
414.654	159.929	-0.181394	60.1474	56.5195	58.9633	
414.86	165.034	-0.635678	61.3051	60.397	59.6655	
415.067	169.289	-0.209702	62.1192	56.1028	60.5465	
415.273	174.74	1.5328	65.8728	62.777	63.6831	
415.48	179.553	-0.112998	68.007	67.5048	66.3246	
415.686	186.269	-0.279309	70.2727	68.9139	68.6874	
415.893	190.849	-1.10626	72.1302	66.8874	70.5498	
416.099	196.663	2.8983	73.8026	79.3232	73.1502	
416.305	202.776	-0.664791	78.8784	74.8494	76.7128	
416.512	208.652	0.816731	83.062	81.8016	80.995	
416.718	216.401	-0.883177	83.6024	85.2379	80.432	
416.924	221.585	0.963512	87.5667	79.4371	83.4517	
417.131	228.784	-1.02442	88.0346	90.1939	87.2562	
417.337	236.554	2.87696	90.344	88.0727	86.9119	
417.543	241.112	0.0150719	94.1364	91.8254	91.1974	
417.749	246.484	0.0902155	98.2648	96.9366	92.3506	
417.955	254.781	0.721611	100.038	99.6124	98.4097	
418.161	262.549	-0.0904742	105.893	99.7102	98.3028	
418.367	269.883	0.165979	107.457	99.4594	102.251	
418.574	274.185	-0.195744	109.002	104.008	104.585	
418.78	285.24	-0.795658	116.275	107.99	109.834	
418.986	291.654	1.77332	117.014	111.455	112.159	
419.192	299.287	-0.839229	119.407	112.578	116.056	
419.398	307.763	0.787621	124.974	112.327	120.935	
419.604	317.725	-0.524236	127.868	119.511	123.512	
419.809	324.981	1.14542	131.458	129.106	126.755	
420.015	333.865	-0.424244	135.801	131.963	129.867	
420.221	344.38	0.18276	140.692	125.716	131.808	
420.427	354.525	-0.328398	144.398	141.929	138.289	
420.633	364.147	0.81678	148.394	136.257	139.133	
420.839	373.76	0.396158	153.384	140.484	147.264	
421.044	383.609	-0.0992402	158.191	153.738	151.499	
421.25	393.324	-0.851104	159.924	140.394	152.629	
421.456	404.401	0.693029	169.663	168.749	160.092	
421.662	414.824	-1.19345	173.16	156.457	166.734	
421.867	425.469	-0.374237	178.61	165.779	168.198	
422.073	437.814	0.750443	179.466	174.003	174.412	
422.278	450.713	0.522326	187.52	177.714	178.354	
422.484	460.81	-1.25804	192.204	180.927	183.74	
422.69	471.595	-1.03951	195.316	182.297	187.469	
422.895	484.353	-1.17972	203.438	188.909	193.939	
423.101	494.022	-0.452345	208.503	205.564	198.791	
423.306	510.007	-1.68258	213.557	192.506	202.596	
423.512	523.535	0.162447	221.472	204.737	208.992	
423.717	534.209	-0.838705	226.72	206.868	215.819	
423.922	549.268	1.93097	231.951	218.254	219.181	
424.128	559.051	-0.322915	234.939	220.305	224.047	
424.333	576.638	0.0465143	241.952	238.231	229.832	
424.539	587.964	0.370284	246.177	239.62	237.254	
424.744	600.444	3.35784	256.705	234.294	242.791	
424.949	617.223	-0.185729	265.164	248.474	249.738	
425.154	633.412	0.08521	269.227	250.765	256.523	
425.36	647.327	-0.015482	275.32	260.973	261.205	
425.565	667.717	0.318167	285.554	264.032	270.861	
425.77	682.584	0.527805	290.363	274.606	276.728	
425.975	703.607	0.903849	298.662	272.845	285.39	
426.18	718.776	-1.13084	308.95	284.41	292.364	
426.385	735.499	1.38754	315.614	300.387	298.75	
426.591	755.837	-0.899629	320.696	304.841	309.118	
426.796	774.375	-0.0624704	331.694	314.203	316.103	
427.001	792.987	-0.0156114	340.348	320.08	326.636	
427.206	812.936	0.704518	351.088	318.419	331.178	
427.411	832.911	0.195554	361.027	339.959	340.22	
427.616	852.078	-0.235017	365.843	350.567	351.664	
427.821	872.082	0.0703733	376.565	350.944	359.806	
428.026	888.238	1.32954	385.278	360.708	363.274	
428.23	916.424	0.241967	396.293	368.61	377.17	
428.435	930.64	-0.918628	403.654	383.854	385.411	
428.64	946.133	0.534674	412.477	386.879	394.137	
428.845	972.224	1.84351	423.924	393.224	403.81	
429.05	990.013	-1.26361	432.783	400.14	408.641	
429.254	1017.17	-0.448217	444.791	420.165	422.895	
429.459	1035.84	0.00766938	451.45	425.988	430.36	
429.664	1068.08	0.913745	464.606	419.951	441.839	
429.869	1089.11	-0.890474	473.579	434.198	451.829	
430.073	1105.62	0.336024	480.463	454.701	455.821	
430.278	1124.05	1.74773	494.844	458.978	466.678	
430.483	1153.13	0.204724	503.696	479.812	480.873	
430.687	1176.53	-1.54171	514.867	478.188	488.038	
430.892	1202.6	1.39833	528.26	489.636	504.451	
431.096	1225.2	0.255883	538.099	503.78	512.736	
431.301	1254.11	2.2497	548.887	515.241	519.691	
431.505	1276.48	-0.0149364	557.101	515.155	530.365	
431.71	1311.77	-0.373985	577.445	537.603	544.51	
431.914	1340.4	-0.708107	588.509	553.427	561.551	
432.118	1373.56	-0.253177	603.187	559.7	569.653	
432.323	1399.64	-0.808346	614.729	564.151	585.905	
432.527	1428.28	1.66877	623.333	586.019	599.876	
432.732	1468.16	0.184314	645.635	594.273	613.023	
432.936	1491.99	1.50179	658.274	611.779	624.575	
433.14	1529	0.160828	675.849	598.749	642.539	
433.344	1565.61	-1.28853	691.847	637.079	655.278	
433.549	1603.41	-1.09054	705.258	651.264	674.287	
433.753	1630.09	1.84146	725.656	660.038	683.531	
433.957	1672.94	1.26219	741.425	692.764	705.074	
434.161	1711.52	2.31114	757.476	707.39	718.717	
434.365	1741.57	1.70133	775.892	721.849	736.337	
434.57	1775.17	3.84618	784.261	736.78	746.272	
434.774	1805.81	3.13143	802.555	733.226	760.262	
434.978	1843.08	6.13583	821.575	766.191	777.859	
435.182	1884.16	5.64027	840.19	769.967	793.959	
435.386	1921.03	4.99928	863.064	793.564	813.491	
435.59	1955.37	5.30807	874.598	809.296	828.961	
435.794	1991.84	6.98988	889.2	834.881	845.283	
435.998	2035.62	3.27366	906.691	838.542	860.551	
436.201	2085.52	5.89556	936.867	865.511	883.477	
436.405	2115.56	4.10163	943.485	864.338	890.285	
436.609	2156.25	3.4211	967.752	897.819	919.344	
436.813	2198.49	0.652065	983.897	899.884	933.311	
437.017	2238.27	1.48123	997.505	919.757	951.68	
437.221	2281.03	0.443602	1021.76	944.503	969.913	
437.424	2318.77	1.73443	1036.27	965.848	985.981	
437.628	2358.76	0.271294	1053.55	985.931	1005.17	
437.832	2399.46	1.3265	1074.11	1020.58	1025.04	
438.036	2432.98	1.03018	1093.42	1023.62	1039.93	
438.239	2479.05	1.64462	1116.61	1032.54	1061.27	
438.443	2520.54	-0.0538283	1132.47	1067.4	1077.27	
438.646	2545.28	-0.387123	1141.04	1044.81	1088.46	
438.85	2584.19	0.765732	1160.91	1089.09	1106.14	
439.054	2603.31	0.700931	1172.42	1093.53	1112.75	
439.257	2646.26	-0.184982	1190.39	1116.42	1137.27	
439.461	2669.42	1.4093	1202.43	1091.6	1141.87	
439.664	2699.43	1.11744	1215.54	1134.91	1158.44	
439.868	2724.39	0.282059	1229.38	1161.05	1177.58	
440.071	2743.8	-0.560746	1236.64	1158.4	1183.24	
440.274	2765.81	1.01484	1248.19	1165.74	1188.38	
440.478	2777.31	0.0388925	1254.25	1169.81	1194.96	
440.681	2799.34	0.304508	1262.73	1179.22	1203.79	
440.885	2809.69	0.193609	1267.7	1170.1	1212.88	
441.088	2816.37	-0.212002	1272.05	1196.05	1219.43	
441.291	2832.95	0.455597	1273.86	1190.19	1223.87	
441.494	2830.46	1.57685	1280.06	1184.28	1218.07	
441.698	2827.64	-0.483308	1278.98	1194.48	1226.28	
441.901	2846.69	1.00164	1287.73	1227.74	1233.21	
442.104	2844.7	-0.642346	1284.38	1214.99	1236.21	
442.307	2839.98	1.37071	1283.01	1214.15	1232.85	
442.51	2839.61	-1.06465	1284.76	1193.72	1231.21	
442.713	2827.02	-0.0443278	1280.19	1219.36	1231.96	
442.916	2812.94	2.18338	1273.49	1209.75	1225.55	
443.12	2800.96	1.57124	1265.08	1201.72	1218.28	
443.323	2780.17	0.245268	1254.11	1196.05	1211.18	
443.526	2762.02	-0.464097	1248.75	1181.33	1202.3	
443.729	2743.14	1.1487	1237.9	1172.57	1195.9	
443.932	2720.95	0.789826	1226.33	1162.66	1185.94	
444.134	2700.21	-1.42815	1218.64	1154.62	1175.54	
444.337	2670.66	0.174949	1201.51	1133.78	1163.08	
444.54	2639.22	0.0436792	1189.95	1130.53	1152.85	
444.743	2603.93	-0.335572	1170.22	1115.74	1134.2	
444.946	2568.02	0.310107	1153.33	1097.44	1119.05	
445.149	2549.06	0.746664	1142.91	1095.02	1107.57	
445.352	2509.63	0.12414	1127.99	1085.68	1096.39	
445.554	2484.09	-0.508946	1113.72	1069.65	1083.26	
445.757	2442.5	-0.508062	1097.24	1041.95	1065.45	
445.96	2407.98	-0.309969	1076.9	1018.87	1050.64	
446.162	2379.1	-0.757725	1068.6	1002.78	1035.22	
446.365	2337.01	1.49099	1043.93	996.872	1017.39	
446.568	2300.84	-0.768096	1028.74	992.07	1001.13	
446.77	2268.58	0.328526	1015.16	979.763	986.52	
446.973	2223.94	-1.26726	993.663	964.321	968.751	
447.175	2189.2	-0.284479	980.567	936.659	953.418	
447.378	2146.85	0.84005	960.715	920.442	933.598	
447.58	2114.49	1.0522	946.599	913.939	920.376	
447.783	2081.67	0.0931467	936.145	884.148	907.207	
447.985	2041.87	0.408846	914.655	882.03	889.422	
448.188	2014.35	0.378811	898.048	871.614	877.886	
448.39	1970.82	0.105321	884.069	842.87	856.851	
448.593	1943.01	-0.1117	868.394	827.747	846.095	
448.795	1912.76	-0.0434259	851.115	814.099	828.244	
448.997	1879.52	0.477466	841.087	796.854	819.962	
449.2	1850.91	-0.105451	824.027	788.69	805.749	
449.402	1831.73	-0.218072	817.877	782.778	797.067	
449.604	1795.95	0.813602	801.996	774.4	780.652	
449.806	1784.3	-0.74977	795.014	755.63	772.084	
450.009	1754.21	0.735232	783.807	747.232	763.1	
450.211	1730.44	1.07682	771.897	737.164	748.576	
450.413	1710.16	0.299244	761.195	738.149	744.238	
450.615	1691.16	-0.536088	755.477	730.688	733.015	
450.817	1673.76	0.224515	744.125	727.224	727.578	
451.019	1658.08	-0.249998	735.739	710.656	718.906	
451.221	1637.12	1.74145	729.697	712.553	709.411	
451.423	1631.06	-1.00137	726.064	694.124	704.722	
451.625	1610.5	0.713779	720.026	686.111	701.409	
451.827	1590.03	0.243243	710.324	689.388	689.159	
452.029	1585.34	1.73158	704.881	678.51	688.339	
452.231	1576.32	-0.816936	698.811	666.343	682.242	
452.433	1560.92	1.30593	690.145	651.24	672.984	
452.635	1545.96	0.175759	687.874	652.241	666.72	
452.837	1535.68	0.804127	682.291	644.074	661.937	
453.039	1523.83	-0.0504105	679.606	656.963	659.862	
453.24	1505.94	-0.18857	673.651	648.236	652.049	
453.442	1498.98	0.579845	663.687	640.577	645.073	
453.644	1486.81	-0.0944979	664.23	642.831	642.327	
453.846	1475.46	0.649992	657.163	635.433	634.844	
454.047	1464.55	0.902121	654.705	632.015	632.898	
454.249	1462.34	-0.608868	648.72	620.412	631.321	
454.451	1451.95	0.405446	646.567	607.416	626.632	
454.652	1440.69	1.16687	640.495	609.526	620.349	
454.854	1433.14	0.444063	634.19	600.526	615.328	
455.056	1428.48	-0.293024	638.762	602.176	614.874	
455.257	1414.01	0.851637	628.044	598.936	609.783	
455.459	1412.06	0.0765542	627.077	586.673	605.514	
455.66	1405.75	1.108	623.247	591.779	603.435	
455.862	1392.25	-0.57438	616.967	593.418	599.672	
456.063	1384.23	-0.639388	612.879	573.876	591.673	
456.265	1370.78	0.690509	606.495	577.617	591.214	
456.466	1357.87	-0.17838	602.634	573.733	580.931	
456.667	1353.51	-0.735929	600.71	576.456	581.341	
456.869	1337.51	0.185117	589.267	550.499	572.649	
457.07	1323.42	-1.35215	585.901	554.904	570.743	
457.271	1314.05	0.631523	582.268	545.674	564.641	
457.473	1304.36	2.15868	577.312	549.977	557.279	
457.674	1295.61	0.543716	572.776	545.015	554.013	
457.875	1288.35	-0.786088	572.046	545.673	551.744	
458.076	1276.52	1.38196	561.014	530.901	544.401	
458.277	1263.69	-1.10695	558.965	539.13	540.111	
458.479	1249.81	0.1022	552.593	527.384	537.54	
458.68	1244.09	0.230794	546.695	527.377	531.971	
458.881	1234.82	0.218359	541.365	520.857	524.453	
459.082	1219.97	0.00640599	534.974	506.553	519.493	
459.283	1207.1	0.653337	532.638	502.256	515.728	
459.484	1199.99	-0.790423	527.983	505.491	515.559	
459.685	1185.07	0.0256346	519.734	498.542	505.143	
459.886	1174.68	1.41518	516.99	498.484	503.457	
460.087	1166.84	1.11596	513.579	496.775	496.305	
460.288	1154.37	-0.255678	506.094	486.812	492.692	
460.489	1149.06	0.609756	502.849	480.256	491.446	
460.69	1132.27	1.08748	495.752	486.668	483.512	
460.89	1123.93	-0.76783	489.86	477.532	478.578	
461.091	1115.23	0.626155	485.304	462.409	471.695	
461.292	1101.08	0.728649	482.709	459.081	469.308	
461.493	1094.56	0.33264	478.441	456.862	460.998	
461.694	1081.81	0.761222	474.397	457.808	461.411	
461.894	1072.9	1.19284	467.738	451.217	454.194	
462.095	1060	0.674268	461.301	430.45	449.215	
462.296	1048.45	-1.1512	455.619	444.761	443.728	
462.496	1041.55	-0.0189304	453.338	442.737	440.949	
462.697	1033.2	-0.195451	448.494	426.763	437.587	
462.898	1022.28	0.389872	442.316	436.154	432.36	
463.098	1017.61	-0.438362	444.051	419.168	429.376	
463.299	1008.61	0.100099	437.265	417.745	427.088	
463.499	997.593	-0.503191	431.473	419.401	421.699	
463.7	989.642	-0.347908	430.163	406.182	415.294	
463.9	984.088	0.583796	426.231	407.931	417.123	
464.101	974.269	1.31686	421.775	409.493	411.698	
464.301	967.655	-1.21982	422.339	403.939	409.545	
464.501	965.805	1.12019	418	402.018	404.809	
464.702	958.931	-0.735838	412.805	403.914	403.014	
464.902	954.277	1.48218	411.055	394.743	398.377	
465.103	947.038	2.19047	410.854	391.593	397.939	
465.303	945.158	0.127949	406.607	395.173	396.249	
465.503	944.024	-1.04683	407.708	383.911	397.281	
465.703	936.322	1.08536	405.321	380.42	390.526	
465.904	937.238	-0.957534	403.59	383.935	391.348	
466.104	935.416	0.605216	404.26	384.893	389.614	
466.304	934.256	0.012077	401.143	389.328	390.173	
466.504	932.183	-0.313317	401.664	387.103	387.364	
466.704	927.966	-0.479547	399.639	386.911	383.794	
466.904	926.04	0.629376	397.97	379.688	385.402	
467.104	922.733	0.226761	393.679	378.84	382.162	
467.304	922.914	0.684535	393.786	382.715	380.056	
467.504	920.101	1.28012	395.625	378.636	380.216	
467.704	921.812	0.0947203	392.722	371.588	380.192	
467.904	917.12	-0.446144	391.535	373.611	377.446	
468.104	920.56	1.2507	393.782	375.932	377.752	
468.304	920.471	-0.92418	390.649	376.416	377.216	
468.504	924.185	-0.267937	392.734	371.92	380.482	
468.704	921.822	-0.203129	390.978	365.655	377.572	
468.904	922.954	-0.457372	394.178	374.976	378.893	
469.104	922.389	-1.00138	390.715	369.422	375.043	
469.304	921.195	0.22968	390.927	378.065	380.266	
469.503	923.863	0.532674	391.012	374.172	378.258	
469.703	927.089	-0.491946	391.175	367.055	376.741	
469.903	926.599	-0.473153	392.147	380.176	380.195	
470.103	925.147	0.0680251	388.926	372.562	374.754	
470.302	929.375	-0.802965	393.675	369.907	378.125	
470.502	932.565	0.141189	392.628	370.113	377.718	
470.701	938.313	0.20306	395.723	379.384	380.587	
470.901	939.714	1.19235	395.126	375.366	380.184	
471.101	938.46	0.189995	393.674	369.999	379.201	
471.3	943.982	0.475048	392.421	372.879	384.057	
471.5	945.836	0.344958	394.562	363.998	380.8	
471.699	948.243	-0.166472	396.5	373.509	384.089	
471.899	950.3	-0.647125	397.043	370.421	380.377	
472.098	951.967	0.397843	392.717	372.309	384.613	
472.298	958.647	-0.0772484	398.212	370.384	384.564	
472.497	955.064	1.11434	397.241	381.797	384.341	
472.696	963.398	-2.98023e-09	397.894	383.049	386.623	
472.896	962.563	0.351377	398.529	379.899	386.871	
473.095	965.113	-0.415573	399.981	382.392	385.108	
473.294	967.495	0.540128	399.435	366.954	383.886	
473.494	970.997	0.0163301	399.065	383.316	385.185	
473.693	971.385	0.266267	401.183	373.85	385.225	
473.892	978.005	0.0543116	400.231	381.62	386.78	
474.091	980.449	1.58817	399.805	383.075	387.339	
474.29	984.881	-1.14275	403.604	394.18	390.389	
474.49	988.807	-0.281131	403.626	382.289	389.083	
474.689	987.158	1.0746	401.42	373.839	388.203	
474.888	991.105	-0.337694	401.799	382.591	388.809	
475.087	996.312	1.0669	404.723	380.508	392.356	
475.286	997.603	0.090968	406.163	388.701	392.019	
475.485	998.8	-0.197	403.898	378.554	391.137	
475.684	1005.02	0.175638	405.77	388.862	391.896	
475.883	1004.46	-0.615663	405.044	381.992	392.625	
476.082	1006.29	0.476264	404.531	390.949	391.337	
476.281	1011.95	-0.00528771	406.189	386.853	391.119	
476.48	1012.05	-0.0316017	408.325	383.798	394.789	
476.678	1013.43	-0.662778	405.878	384.784	393.429	
476.877	1017.23	1.34834	406.977	379.486	394.245	
477.076	1022.04	-0.478218	409.421	383.741	395.18	
477.275	1024.04	0.434918	410.17	386.066	394.118	
477.474	1028.12	0.17816	410.792	390.81	395.456	
477.672	1031.05	0.528444	411.67	394.073	397.439	
477.871	1038.31	1.01704	414.2	392.723	398.665	
478.07	1040.34	0.942854	410.933	397.366	400.142	
478.269	1050.72	-1.17714	415.437	390.458	401.02	
478.467	1045.3	0.543396	410.445	394.735	398.619	
478.666	1052.04	-0.0837363	415.774	402.725	403.579	
478.864	1052.96	0.19303	415.951	396.005	400.457	
479.063	1061.39	-0.261712	416.408	399.99	404.021	
479.262	1066.03	0.790727	418.558	404.14	404.175	
479.46	1072.3	1.57551	419.669	405.345	403.809	
479.659	1075.74	0.42443	423.861	402.15	409.451	
479.857	1081.63	-0.481478	419.465	403.625	407.463	
480.055	1083.32	0.16181	424.318	408.816	407.145	
480.254	1087.2	0.606411	424.583	393.514	408.221	
480.452	1093.75	1.55384	424.116	404.322	408.56	
480.651	1095.03	0.802349	424.552	394.125	408.887	
480.849	1101.81	0.794249	424.937	398.566	410.916	
481.047	1104.03	0.848268	427.364	401.413	411.908	
481.246	1109.62	0.390529	425.533	404.323	412.099	
481.444	1115.84	-0.109182	426.872	408.606	413.164	
481.642	1123.1	0.553148	429.093	415.613	414.778	
481.84	1125.66	0.422067	432.83	407.315	416.59	
482.039	1130.59	0.937602	430.25	415.613	417.801	
482.237	1133.43	0.0104157	431.721	409.466	415.924	
482.435	1139.66	-0.448994	434.43	417.34	421.586	
482.633	1145.04	2.21395	433.534	412.839	419.61	
482.831	1150.92	0.209262	435.2	409.966	420.185	
483.029	1159.33	0.555872	438.622	421.509	420.372	
483.227	1165.04	-0.14692	438.82	424.898	425.09	
483.425	1168.17	-0.356698	441.68	414.315	424.946	
483.623	1170.34	0.4874	440.543	422.916	424.646	
483.821	1179.38	0.968561	443.197	415.597	426.686	
484.019	1184.92	0.473384	442.9	419.108	428.225	
484.217	1187.85	-0.262643	443.868	421.684	429.003	
484.415	1194.5	0.64487	441.562	429.721	430.461	
484.613	1202.7	1.14805	444.446	417.605	431.061	
484.811	1200.36	1.00849	445.788	415.376	430.503	
485.008	1208.06	1.97212	449.287	439.277	433.405	
485.206	1210.49	1.81757	448.522	425.043	432.998	
485.404	1219.23	0.865395	448.484	427.658	434.096	
485.602	1223.5	2.34686	447.86	436.416	434.077	
485.799	1233.89	1.11865	452.831	435.424	437.898	
485.997	1239.84	2.88072	454.447	428.151	438.355	
486.195	1241.36	0.943482	454.12	433.625	438.731	
486.392	1252.04	1.06488	453.72	432.423	441.102	
486.59	1254.07	0.931357	459.111	437.823	443.322	
486.788	1258.94	2.13788	457.134	444.747	442.544	
486.985	1262.02	1.4644	457.179	429.666	439.607	
487.183	1271.81	1.37794	459.471	436.914	445.923	
487.38	1272.57	1.64924	456.885	438.543	444.556	
487.578	1283.94	0.229986	459.418	437.668	444.478	
487.775	1285.82	1.70113	461.83	447.386	447.243	
487.973	1289.25	1.62026	457.661	438.464	444.382	
488.17	1299.34	-0.365114	463.385	438.883	448.888	
488.367	1299.46	1.0781	464.496	440.092	448.566	
488.565	1310.4	0.52765	465.717	442.924	449.044	
488.762	1312.24	0.882491	465.381	435.714	449.471	
488.959	1317.22	0.322944	465.852	449.113	450.171	
489.157	1323.28	2.88507	466.233	448.383	453.165	
489.354	1329.51	0.565759	466.494	447.294	452.683	
489.551	1331.56	0.339145	468.462	442.407	453.048	
489.749	1336.67	0.226675	466.813	444.866	451.414	
489.946	1343.48	0.973476	467.144	446.809	453.75	
490.143	1343.54	0.956232	466.94	445.799	453.434	
490.34	1352.3	1.81677	470.4	451.781	454.719	
490.537	1363.05	0.0217374	471.686	465.038	457.702	
490.734	1365.46	1.7932	470.668	449.294	456.92	
490.931	1370.75	0.777402	472.575	440.646	455.451	
491.128	1378	0.862373	471.143	453.86	457.589	
491.325	1378.23	0.343718	473.432	445.098	458.72	
491.522	1386.96	1.52819	476.052	445.47	457.666	
491.719	1396.57	0.620196	475.271	452.019	460.306	
491.916	1403	-0.4685	479.968	461.687	465.821	
492.113	1403.67	-0.769322	475.923	463.083	462.698	
492.31	1412.59	1.64665	479.329	465.681	464.244	
492.507	1418.93	1.11633	476.698	452.695	463.877	
492.704	1418.51	1.68971	477.296	461.264	462.148	
492.901	1428.05	0.0386992	479.137	461.372	463.768	
493.097	1434.66	0.371483	480.163	471.55	469.998	
493.294	1438.2	-0.366284	482.368	463.999	466.496	
493.491	1443.58	0.427234	479.753	469.303	465.808	
493.688	1445.25	0.608828	479.041	457.861	466.181	
493.884	1450.32	0.636316	481.398	461.312	466.661	
494.081	1453.76	-0.281447	478.227	458.802	466.381	
494.278	1462.2	0.420883	480.959	453.103	468.443	
494.474	1463.73	0.800049	477.986	458.417	467.742	
494.671	1464.41	0.208913	478.897	465.355	463.797	
494.867	1471.42	-0.0055109	479.096	461.185	467.1	
495.064	1473.39	1.43237	481.08	463.029	467.858	
495.26	1476.44	-0.473255	480.742	466.398	463.848	
495.457	1487.01	0.734282	483.666	468.097	466.717	
495.653	1491.6	0.805476	482.013	452.313	465.793	
495.85	1495.54	0.865277	482.893	471.852	469.206	
496.046	1503.73	-0.927199	481.501	482.127	469.212	
496.243	1509.51	0.679388	482.008	462.271	470.151	
496.439	1514.43	-0.0276526	486.385	464.669	469.849	
496.635	1519.18	0.408248	479.921	459.637	470.303	
496.832	1522.68	0.126725	479.332	459.92	469.139	
497.028	1530.44	0.744247	482.91	476.037	469.605	
497.224	1537.95	0.843859	483.318	468.408	471.092	
497.42	1537.8	0.478775	484.907	478.615	471.186	
497.617	1550.95	1.3893	485.201	473.145	474.983	
497.813	1551.57	0.131961	484.332	472.804	474.05	
498.009	1555.59	-0.696608	482.581	470.495	471.446	
498.205	1562.17	-0.0768844	487.452	461.476	473.32	
498.401	1570.75	-0.867098	485.064	471.125	472.533	
498.597	1572.27	0.323241	486.288	472.244	472.281	
498.793	1584.16	2.39413	489.021	474.817	473.316	
498.989	1586.52	0.50354	486.518	477.268	475.809	
499.185	1589.97	0.300564	484.081	466.94	472.368	
499.381	1602.25	0.805022	485.724	465.133	473.147	
499.577	1608.25	0.327946	487.921	474.548	475.915	
499.773	1611.58	0.131126	486.02	468.755	475.002	
499.969	1619.18	-1.04248	487.325	471.205	473.771	
500.165	1623.1	0.33229	486.284	467.69	473.029	
500.361	1624.89	-0.211895	488.019	473.748	475.758	
500.557	1627.64	0.119079	486.38	470.665	473.858	
500.753	1634.62	-0.0594603	486.281	467.704	475.019	
500.948	1642.64	-0.335038	487.127	468.448	474.23	
501.144	1646.53	-0.847216	487.387	472.493	478.95	
501.34	1650.39	0.833981	483.433	466.825	472.994	
501.536	1653.64	-0.134321	485.413	477.228	475.115	
501.731	1662.85	0.691401	487.883	477.324	475.877	
501.927	1663.58	1.78156	486.934	475.092	475.538	
502.123	1670.76	0.347091	486.386	460.381	472.716	
502.318	1674.12	-0.0372733	487.141	465.735	473.563	
502.514	1679.08	-0.175241	484.784	474.695	473.827	
502.709	1685.24	0.76519	485.611	487.346	476.719	
502.905	1691.84	-0.306842	484.567	467.32	473.387	
503.1	1694.01	0.268962	481.902	471.97	474.167	
503.296	1699.79	0.464047	487.98	474.077	474.586	
503.491	1697.93	-0.802047	480.776	468.055	474.573	
503.687	1708.55	1.22166	483.465	471.266	471.563	
503.882	1710.44	-0.668785	479.433	462.313	471.073	
504.078	1718.11	-0.548318	480.219	462.446	471.185	
504.273	1717.44	-0.0936047	483.264	480.161	471.216	
504.468	1726.94	-0.0727703	482.861	466.764	471.235	
504.664	1734.08	0.446681	484.7	464.132	472.529	
504.859	1739.64	0.900339	483.337	465.848	472.264	
505.054	1743.37	0.289088	482.904	449.573	470.635	
505.249	1743.68	0.863953	480.701	468.016	471.41	
505.445	1749.43	0.655711	479.864	463.147	470.916	
505.64	1754.99	1.00232	477.205	470.659	470.335	
505.835	1758.45	-0.876822	480.301	465.704	468.95	
506.03	1767.81	0.229478	479.224	463.551	471.388	
506.225	1771.1	0.182882	479.781	471.247	469.384	
506.42	1778.62	-0.228263	480.733	475.001	470.588	
506.615	1782.5	-0.859139	477.008	467.372	470.168	
506.81	1782.9	0.619125	475.671	462.064	467.282	
507.005	1787.79	-0.080353	477.382	468.895	469.916	
507.2	1789.88	0.545615	476.56	464.113	467.55	
507.395	1796.91	-0.0500194	479.406	462.9	466.834	
507.59	1799.89	1.75165	472.957	452.09	464.481	
507.785	1806.35	-0.303237	475.748	455.283	468.341	
507.98	1809.92	-0.173473	475.09	454.29	463.311	
508.175	1812.77	-0.0692468	474.685	465.353	465.155	
508.37	1820.6	1.52778	473.743	464.184	465.98	
508.564	1821.62	-0.0345071	472.239	476.183	463.678	
508.759	1828.62	0.839222	471.789	455.466	463.084	
508.954	1826.78	-0.132524	471.674	458.193	464.263	
509.149	1836.46	0.638797	471.905	461.029	463.486	
509.343	1836.81	-0.572898	469.776	456.115	462.186	
509.538	1843.13	0.411052	469.36	463.912	462.362	
509.733	1848.29	0.190312	470.351	463.308	459.632	
509.927	1852.17	-0.233801	470.109	459.118	459.247	
510.122	1858.47	-0.194438	466.783	448.992	458.633	
510.317	1861.2	0.07756	467.848	452.708	458.832	
510.511	1866.61	-0.735732	466.585	455.936	460.324	
510.706	1867.27	0.665284	467.338	453.261	458.548	
510.9	1876.5	-0.318067	465.964	453.819	457.369	
511.095	1874.44	0.551804	463.156	452.936	455.575	
511.289	1873.01	-0.0573559	463.683	456.434	453.741	
511.484	1875.87	-0.176389	462.215	447.69	452.887	
511.678	1882.67	0.0475892	460.581	439.229	454.236	
511.872	1884.25	-0.237294	455.222	451.789	452.564	
512.067	1887.78	-0.227382	460.036	438.529	450.135	
512.261	1894.17	0.578722	459.532	449.112	451.12	
512.455	1892.38	-0.330835	458.413	449.544	451.104	
512.65	1898.25	-0.136879	456.655	455.679	451.872	
512.844	1905.52	-0.53308	456.524	446.994	452.624	
513.038	1905.85	0.432794	453.54	450.294	448.396	
513.232	1910.23	-0.131445	453.635	455.56	447.892	
513.427	1917.01	-0.418531	451.689	453.241	447.347	
513.621	1917.18	0.370118	451.874	446.095	445.955	
513.815	1920.72	-0.210656	452.091	437.485	444.507	
514.009	1931.65	-0.67081	453.105	444.161	444.614	
514.203	1931.46	0.224368	450.826	448.956	445.357	
514.397	1935.92	0.168415	449.391	447.114	445.149	
514.591	1941.16	0.0560772	450.928	441.005	442.158	
514.785	1948.59	-0.860476	451.087	440.971	443.964	
514.979	1949.74	0.68168	447.271	439.613	441.574	
515.173	1949.92	-0.540149	447.594	443.481	443.093	
515.367	1956.78	0.130497	449.094	443.812	442.756	
515.561	1956.41	-0.0512151	445.458	450.456	441.19	
515.755	1966.44	-0.698736	445.193	441.419	440.503	
515.949	1966.67	-0.40869	441.549	443.763	439.335	
516.142	1970.67	0.278524	442.673	431.331	436.855	
516.336	1977.44	-0.548962	443.344	433.745	438.227	
516.53	1971.47	-0.20832	442.181	438.616	435.7	
516.724	1979.27	-0.22703	440.208	424.532	433.69	
516.917	1982.09	-0.50026	438.084	437.575	435.954	
517.111	1990.68	-0.375751	440.249	435.903	433.754	
517.305	1997.21	0.343573	440.088	428.682	435.429	
517.499	1994.9	-0.185194	438.898	430.209	432.169	
517.692	1994.18	0.517554	436.646	434.69	432.811	
517.886	2008.47	-0.881961	436.048	431.251	432.798	
518.079	2007.73	0.662433	434.141	427.084	431.33	
518.273	2013.37	1.10701	435.983	421.439	428.402	
518.466	2015.22	-0.0601162	434.39	428.425	428.81	
518.66	2018.11	0.277378	431.356	432.034	427.642	
518.853	2023.78	0.250048	430.569	427.744	427.729	
519.047	2023.03	0.351388	428.496	435.878	427.232	
519.24	2031.77	0.625396	428.882	423.879	426.335	
519.434	2036.37	0.208549	428.767	418.85	424.658	
519.627	2038.11	0.561181	430.468	419.754	423.356	
519.82	2032.19	-0.342673	424.793	422.586	424.5	
520.014	2043.41	0.765659	425.71	428.834	422.322	
520.207	2045.95	-0.459142	424.118	422.773	421.721	
520.4	2051.94	0.102131	424.574	418.679	420.242	
520.594	2053.55	-0.719259	423.56	421.379	418.703	
520.787	2058.79	-0.749033	423.274	417.691	420.327	
520.98	2058.17	0.724517	422.358	416.908	420.051	
521.173	2060.42	0.22351	419.15	406.826	415.161	
521.366	2065.99	-0.74521	419.205	416.255	416.876	
521.56	2067.9	0.116492	417.385	417.959	414.791	
521.753	2070.37	-0.23795	419.55	414.76	415.771	
521.946	2076.23	0.518161	416.253	413.25	414.79	
522.139	2077.95	-0.158852	413.771	412.338	412.307	
522.332	2081.99	0.893509	414.691	403.698	411.978	
522.525	2082.18	0.262123	413.951	417.571	409.801	
522.718	2093.24	0.943904	413.43	415.966	411.129	
522.911	2089.81	-0.665046	411.63	411.724	409.866	
523.104	2094.75	1.29127	409.434	405.709	408.244	
523.297	2101.29	-0.174232	409.788	409.521	408.642	
523.489	2101.19	-0.0329071	408.78	405.176	405.098	
523.682	2104.23	-0.353039	407.334	407.35	406.55	
523.875	2110.02	0.87539	407.75	406.228	403.436	
524.068	2108.76	-0.583666	403.132	407.761	403.791	
524.261	2111.92	-0.0613176	404.641	400.711	402.362	
524.453	2113.64	-0.561735	404.386	404.921	403.033	
524.646	2120.93	0.255952	401.882	398.674	401.502	
524.839	2125.14	-0.926663	401.61	403.431	400.152	
525.031	2131.63	0.414546	400.644	403.63	399.087	
525.224	2132.39	-0.353223	399.425	402.464	397.913	
525.417	2126.78	0.281522	398.572	398.492	397.824	
525.609	2136.83	-0.316123	395.744	396.159	395.712	
525.802	2142.98	0.139261	396.903	396.327	393.029	
525.995	2142.99	-1.5503	395.985	387.489	394.737	
526.187	2146.62	0.192296	394.681	391.813	394.537	
526.38	2152.61	0.0771427	394.204	395.072	393.851	
526.572	2150.41	1.86598	393.235	392.271	390.953	
526.765	2157.94	-0.570023	392.05	388.62	390.52	
526.957	2155.35	0.0676841	391.292	395.256	390.147	
527.149	2156.13	-0.570896	389.819	386.109	386.609	
527.342	2159.19	0.630211	389.442	384.303	386.759	
527.534	2164.35	-0.64104	389.883	394.885	388.718	
527.726	2170.96	0.248337	387.272	383.603	387.142	
527.919	2166.98	-0.588849	384.395	391.565	384.265	
528.111	2174.21	1.07347	383.506	391.378	385.556	
528.303	2175.24	-0.185598	383.576	384.716	382.469	
528.495	2178.84	0.392198	382.519	386.458	383.255	
528.688	2181.86	-0.652368	381.185	375.087	380.417	
528.88	2181.26	1.00194	377.945	376.455	378.976	
529.072	2189.63	-0.84709	378.158	391.488	380.177	
529.264	2194.55	1.9074	378.765	378.995	377.447	
529.456	2191.48	-0.0690416	376.132	378.663	376.214	
529.648	2189.71	0.0642309	377.228	381.033	376.059	
529.84	2199.27	0.420828	375.035	376.389	373.93	
530.032	2199.94	-0.119073	372.094	381.421	373.929	
530.224	2201.92	-0.416774	370.61	372.264	371.453	
530.416	2202.14	0.223537	372.844	380.063	371.817	
530.608	2209.82	-1.49492	369.877	383.049	371.854	
530.8	2213.84	0.324382	369.893	372.072	371.972	
530.992	2214.01	0.0299969	368.257	371.106	368.44	
531.184	2214.9	0.810586	366.619	367.136	366.735	
531.376	2214.04	0.185087	363.463	369.799	365.464	
531.568	2222.04	0.632762	366.649	369.93	365.879	
531.759	2225.66	-0.040219	363.808	375.958	364.143	
531.951	2229.03	1.71541	363.137	367.324	362.145	
532.143	2224.13	0.00502945	360.005	359.989	359.502	
532.335	2230.14	0.585454	359.868	361.685	360.187	
532.526	2233.83	-0.779095	360.522	355.632	360.91	
532.718	2234.43	0.99301	359.431	368.787	361.069	
532.91	2237.52	1.6678	356.311	366.196	359.184	
533.101	2245.4	0.0967028	355.366	362.61	357.181	
533.293	2250.13	-0.0713053	355.617	352.544	355.871	
533.484	2254.03	1.06788	356.581	352.885	356.921	
533.676	2252.45	-0.301269	352.807	356.075	355.785	
533.868	2252.75	0.3526	351.838	355.518	353.32	
534.059	2256.68	-0.491795	352.017	361.136	353.554	
534.251	2263.31	0.657244	349.739	347.857	353.933	
534.442	2264.19	0.667878	351.24	353.466	351.703	
534.633	2265.73	-0.489111	347.614	348.953	349.056	
534.825	2279.65	-0.848756	348.204	347.824	350.446	
535.016	2270.29	-0.036071	344.945	348.157	347.694	
535.208	2276.64	-0.274157	347.488	348.971	348.902	
535.399	2276.19	0.3619	346.316	349.073	345.971	
535.59	2284.24	-0.49785	342.934	356.383	345.372	
535.781	2290.1	0.415496	344.077	346.986	345.012	
535.973	2286.57	0.529086	341.714	335.368	342.63	
536.164	2289.36	0.923258	340.464	346.222	344.959	
536.355	2294.61	1.00212	342.393	348.728	342.739	
536.546	2293.98	2.05231	338.259	350.192	340.372	
536.737	2299.22	-0.857621	338.308	341.427	339.989	
536.929	2302.22	2.03855	335.326	341.514	337.493	
537.12	2296.51	1.34039	333.421	344.885	336.105	
537.311	2302.88	1.15928	336.336	336.856	336.614	
537.502	2304.5	-0.437327	334.365	345.228	336.36	
537.693	2308.66	1.48103	332.555	339.734	335.597	
537.884	2310.28	1.2619	328.723	327.854	333.729	
538.075	2307.86	1.28212	327.916	334.848	330.209	
538.266	2310.32	0.672676	328.905	337.318	330.609	
538.457	2315.97	0.747132	327.291	332.672	329.398	
538.648	2321.88	2.16389	326.736	329.768	328.252	
538.838	2324.8	0.805565	325.605	334.027	329.947	
539.029	2321.63	1.84828	324.645	325.272	324.367	
539.22	2329.63	1.81566	326.179	334.778	328.063	
539.411	2329.24	2.30532	322.455	331.669	325.289	
539.602	2333.74	3.32483	322.268	340.227	325.445	
539.792	2331.63	2.33121	320.339	323.381	323.26	
539.983	2336.57	5.13727	320.374	321.471	321.436	
540.174	2347.21	2.97428	320.468	322.196	322.492	
540.365	2343.48	4.17401	318.111	324.815	320.88	
540.555	2346.07	4.18585	318.342	313.923	320.325	
540.746	2340.61	4.66068	314.819	313.291	319.089	
540.936	2347.59	5.14217	314.317	319.758	316.925	
541.127	2349.88	5.27056	311.51	319.634	316.371	
541.317	2347.5	5.18677	313.136	322.501	316.83	
541.508	2345.18	5.47222	312.864	314.749	316.184	
541.698	2354.02	6.1543	310.204	320.678	314.74	
541.889	2360.68	7.14018	310.997	311.81	313.178	
542.079	2358.81	4.36915	309.869	319.919	311.374	
542.27	2357.47	6.00831	306.458	320.616	311.828	
542.46	2360.64	4.58526	303.554	313.801	310.109	
542.651	2365.14	5.12474	307.881	312.246	309.952	
542.841	2377.13	5.13645	303.367	309.172	309.327	
543.031	2375.2	5.7417	304.455	317.41	307.737	
543.222	2372.9	4.83295	303.032	305.611	305.955	
543.412	2371.05	4.9001	300.043	305.78	304.578	
543.602	2373.13	6.73473	298.808	306.062	301.535	
543.792	2377.68	4.24608	301.372	304.734	304.443	
543.982	2371.3	5.20141	296.514	302.937	301.417	
544.173	2380.39	4.71918	297.159	303.93	299.194	
544.363	2380.66	5.75174	294.454	305.673	300.85	
544.553	2381.51	6.31193	295.515	309.479	300.626	
544.743	2389.24	5.32315	294.761	297.938	297.579	
544.933	2388.77	6.38681	292.926	297.706	298.577	
545.123	2393.31	6.40479	292.66	296.397	295.988	
545.313	2397.55	8.28921	291.874	313.224	297.232	
545.503	2399.03	6.68559	290.376	308.252	295.756	
545.693	2399.11	6.6281	288.731	292.32	293.681	
545.883	2402.45	6.58672	286.073	299.505	291.015	
546.073	2402.84	7.096	287.066	296.32	292.89	
546.263	2408.94	5.29741	288.763	295.707	293.738	
546.453	2408.04	5.99421	285.208	286.833	290.372	
546.643	2409.78	4.547	285.439	300.426	291.403	
546.832	2412.39	5.20585	284.644	293.726	289.759	
547.022	2418.82	3.71209	282.933	289.811	289.339	
547.212	2419.19	2.67035	282.695	296.257	287.911	
547.402	2415.56	2.96768	281.031	292.331	285.876	
547.591	2422.08	3.75875	282.779	289.001	285.882	
547.781	2423.42	2.8112	280.258	286.767	284.391	
547.971	2427.87	3.24941	279.763	281.184	283.742	
548.16	2430.53	1.14337	280.261	291.695	283.019	
548.35	2435.25	2.46775	278.934	278.45	281.203	
548.54	2433.23	1.76119	277.794	285.776	283.681	
548.729	2437.16	1.81245	275.959	285.978	280.452	
548.919	2442.1	2.48094	275.22	276.963	279.139	
549.108	2444.86	1.24323	274.625	277.012	279.183	
549.298	2445.18	1.36013	272.647	279.382	277.131	
549.487	2445.98	2.19106	272.398	279.355	279.222	
549.677	2446.46	0.955207	271.582	284.533	275.014	
549.866	2455.17	1.40097	269.389	281.748	275.973	
550.055	2453.36	1.13569	271.098	275.509	276.365	
550.245	2457.93	1.97005	266.996	282.566	275.077	
550.434	2463	0.899189	270.539	276.402	272.779	
550.623	2464.48	1.77866	267.773	282.916	275.377	
550.813	2465.36	0.890871	268.249	274.123	275.107	
551.002	2467.43	0.865533	267.348	278.692	272.249	
551.191	2469.72	0.745958	265.139	274.513	270.358	
551.381	2469.51	1.87564	264.851	274.45	270.598	
551.57	2475.66	-0.0538908	264.92	280.908	271.11	
551.759	2473.34	1.23519	265.845	278.278	271.541	
551.948	2480.03	1.18221	261.604	273.93	267.287	
552.137	2480.18	1.39358	261.755	280.498	267.813	
552.326	2488.45	1.78765	262.556	271.323	268.953	
552.515	2493.32	1.09412	259.853	270.859	266.613	
552.704	2487.97	0.125862	261.354	266.469	264.533	
552.893	2490.42	1.13095	258.025	269.914	265.097	
553.082	2493.17	1.3956	258.517	266.855	263.813	
553.271	2491.27	1.29346	256.227	268.568	263.055	
553.46	2492.99	1.9999	253.798	260.736	262.163	
553.649	2497.09	1.90747	255.276	267.801	262.051	
553.838	2492.31	-0.961604	253.216	265.144	260.871	
554.027	2499.69	0.574548	253.813	258.489	262.064	
554.216	2499.28	0.0190898	254.361	264.685	261.424	
554.405	2495.04	1.21991	251.451	260.728	258.631	
554.593	2502.62	0.328381	251.205	268.782	256.979	
554.782	2496.03	0.407597	250.08	254.582	255.483	
554.971	2496.22	-0.340669	248.356	252.725	255.406	
555.16	2499.98	0.557866	248.917	267.119	255.299	
555.348	2504.2	0.571594	247.261	252.016	253.512	
555.537	2503.09	1.04743	247.408	262.207	253.777	
555.726	2506.97	0.315684	248.197	264.421	252.94	
555.914	2511.68	1.91756	244.907	256.293	250.137	
556.103	2512.99	0.0800323	246.368	260.726	252.064	
556.291	2519.04	0.527088	243.761	254.522	252.655	
556.48	2518.64	1.82648	244.252	255.552	251.139	
556.668	2524.93	0.818938	242.936	262.484	252.584	
556.857	2519.81	0.623632	243.981	255.328	249.342	
557.045	2531.63	-0.178546	242.596	256.66	250.552	
557.234	2527.14	-0.0562246	240.388	252.008	249.025	
557.422	2536.93	0.00469105	241.928	249.981	247.917	
557.611	2530.46	-0.0795641	238.773	261.738	248.789	
557.799	2533.53	0.145194	240.203	250.741	245.401	
557.987	2535.39	-0.635778	238.844	257.808	247.181	
558.176	2539.81	0.560983	239.982	255.799	247.836	
558.364	2539.12	-0.167956	239.248	249.466	245.438	
558.552	2543.11	1.27412	236.186	242.176	242.985	
558.74	2547.4	-0.349755	236.473	249.282	245.582	
558.929	2550.18	1.44147	236.077	252.047	244.427	
559.117	2550.59	-0.512457	235.448	251.318	243.647	
559.305	2553.49	1.58813	235.977	249.825	244.64	
559.493	2556.71	-0.00465597	234.709	249.407	241.243	
559.681	2558.19	0.656231	234.191	246.896	241.699	
559.869	2559.29	0.130308	232.841	244.057	240.783	
560.057	2566.64	0.512153	234.337	249.065	242.36	
560.245	2567.57	-0.739531	234.304	248.227	240.692	
560.433	2567.84	-0.34856	231.715	242.76	240.281	
560.621	2569.6	0.0975899	229.615	240.397	238.693	
560.809	2572.86	1.09735	231.227	240.371	238.186	
560.997	2573.16	-0.488038	231.793	241.662	237.417	
561.185	2579.92	-0.204682	230.248	247.739	237.381	
561.373	2580.58	-0.418426	227.023	239.777	235.779	
561.561	2580.64	0.934184	229.351	235.795	236.012	
561.749	2584.37	0.134917	227.047	242.353	234.925	
561.937	2586.58	0.0278988	226.264	245.421	235.61	
562.124	2583.83	-0.162474	227.759	240.355	234.367	
562.312	2593.46	0.874835	226.852	240.999	234.205	
562.5	2592.14	0.832934	226.988	242.374	234.557	
562.688	2592.39	0.42299	224.873	236.586	233.518	
562.875	2600.35	-0.511885	224.359	240.228	232.735	
563.063	2598.45	0.633292	222.813	234.393	232.499	
563.251	2602.08	-0.488932	223.656	237.672	232.178	
563.438	2600.56	2.01951	223.379	235.477	230.498	
563.626	2599.65	0.679566	221.582	243.257	228.222	
563.813	2609.3	0.541228	221.728	231.464	230.453	
564.001	2606.94	0.345015	221.541	237.533	230.338	
564.188	2612.95	-0.186555	221.391	233.828	229.615	
564.376	2618.65	0.804416	221.437	234.689	228.032	
564.563	2618.79	0.776183	220.342	237.83	227.917	
564.751	2617.98	0.135583	218.965	230.248	227.287	
564.938	2622.14	0.191509	218.554	225.421	228.394	
565.126	2624.56	0.294536	218.78	240.192	227.366	
565.313	2630.88	1.4793	219.541	238.392	227.203	
565.5	2621.31	0.995145	218.778	231.439	226.938	
565.688	2633.07	0.562649	219.039	229.683	226.541	
565.875	2628.01	0.519793	216.713	230.699	225.969	
566.062	2640.32	0.540413	218.95	231.795	225.09	
566.249	2635.22	-0.662201	215.347	226.336	225.272	
566.437	2640.66	0.437284	214.602	223.081	225.62	
566.624	2633.69	-0.968163	215.811	233.2	222.469	
566.811	2644.2	-0.424397	217.12	225.576	222.731	
566.998	2635.05	-0.612232	215.27	228.457	222.868	
567.185	2644.64	-0.21719	213.484	220.802	220.786	
567.372	2648.35	1.17607	215.329	227.42	222.272	
567.559	2645.11	0.170112	212.891	227.666	221.192	
567.746	2649.07	0.0189429	212.883	230.137	222.797	
567.933	2647.91	1.1592	213.009	231.461	220.185	
568.12	2652.73	-0.336476	213.376	231.116	220.406	
568.307	2652.88	0.854168	209.917	221.116	219.724	
568.494	2656.49	0.532473	212.019	230.798	219.341	
568.681	2659.14	0.452278	211.615	229.548	218.772	
568.868	2659.33	-0.705039	210.192	225.77	218.418	
569.055	2666.94	1.03785	209.672	223.861	219.222	
569.242	2666.12	-0.186424	208.38	230.066	218.132	
569.429	2667.39	-8.9407e-10	207.653	222.976	217.74	
569.615	2670.92	-0.403203	210.042	218.666	216.122	
569.802	2672.06	1.68041	209.146	227.71	215.579	
569.989	2674.15	0.515019	208.989	222.257	217.299	
570.176	2676.36	0.269702	206.771	222.985	215.344	
570.362	2684.93	-0.797399	210.926	216.805	215.162	
570.549	2682.35	0.154741	207.279	221.56	212.969	
570.736	2685.93	-0.707355	208.99	221.15	216.031	
570.922	2685.4	0.664751	206.675	223.318	213.662	
571.109	2692.78	-0.0486192	207.029	228.68	214.111	
571.295	2690.51	0.0486006	205.892	215.952	213.635	
571.482	2689.68	0.84674	205.621	225.379	214.673	
571.668	2699.24	0.883696	202.824	220.172	213.646	
571.855	2704.37	-0.396497	205.354	223.091	213.088	
572.041	2704.23	0.0441126	205.271	214.191	212.851	
572.228	2705.89	-0.392464	203.658	215.301	212.619	
572.414	2705.52	-0.378273	203.378	214.137	211.353	
572.601	2706.62	-1.29347	202.673	224.444	213.28	
572.787	2710.31	-0.797999	203.216	215.908	212.755	
572.973	2710.8	0.0986668	203.647	216.786	213.217	
573.16	2714.55	0.0939691	202.805	217.89	211.196	
573.346	2715.62	-5.36442e-09	200.741	212.226	211.252	
573.532	2721.88	0.43244	202.256	212.612	209.944	
573.718	2720.24	-0.352994	202.038	223.301	211.949	
573.905	2712.31	-0.0546583	201.704	214.027	210.864	
574.091	2722.78	0.942539	201.261	217.602	209.207	
574.277	2726.3	3.16271	200.762	217.526	209.169	
574.463	2726.61	0.481165	200.659	213.858	208.963	
574.649	2724.73	0.732806	200.198	209.818	208.145	
574.835	2729.98	-0.764432	200.122	216.299	208.521	
575.021	2727.27	0.271815	200.944	217.488	208.477	
575.207	2732.11	0.297571	199.993	213.661	207.626	
575.393	2729.71	1.15226	197.944	214.487	206.738	
575.579	2735.43	-0.663586	199.234	218.112	208.116	
575.765	2736	0.929629	197.588	209.949	205.834	
575.951	2749.76	-0.597332	196.611	210.123	206.532	
576.137	2747.86	0.669494	199.659	212.623	206.354	
576.323	2746.36	0.727168	196.866	214.96	206.903	
576.509	2752.72	0.261779	197.185	215.424	206.03	
576.695	2753.96	0.838482	197.22	215.721	207.302	
576.88	2761.97	0.987382	197.178	202.796	204.76	
577.066	2763.9	0.563918	196.621	211.521	204.468	
577.252	2765.17	0.817833	196.489	209.567	204.218	
577.438	2770.12	-0.782787	194.933	216.205	205.18	
577.623	2773.81	0.354052	193.581	214.685	204.932	
577.809	2779.47	-0.500381	196.566	216.425	205.219	
577.995	2782.38	1.19752	195.387	211.04	204.765	
578.18	2775.09	-0.642365	194.511	208.299	202.432	
578.366	2783.77	2.17513	197.065	199.913	203.547	
578.552	2785.85	-0.210054	196.044	207.229	204.271	
578.737	2782.73	1.17872	195.08	206.113	202.903	
578.923	2787.81	0.42161	194.279	203.274	200.885	
579.108	2790.04	1.43806	194.015	206.562	203.637	
579.294	2789.75	0.687853	194.682	206.869	201.208	
579.479	2790.38	1.68728	193.29	206.484	202.222	
579.665	2795.62	-0.697609	194.876	214.864	202.065	
579.85	2795.42	1.12586	193.262	210.301	200.572	
580.035	2797.29	0.550935	193.321	205.499	200.774	
580.221	2801.17	0.858486	193.866	207.781	201.914	
580.406	2799.59	0.241582	192.551	207.1	199.244	
580.591	2802.2	0.414246	192.73	211.416	200.298	
580.777	2807.91	-0.67393	193.544	212.342	200.948	
580.962	2815.67	0.778545	192.182	207.428	199.39	
581.147	2820.95	0.85678	195.583	202.488	201.457	
581.332	2817.68	1.10752	192.22	205.032	199.965	
581.517	2820.83	0.462555	192.332	208.15	200.205	
581.703	2819.2	0.598259	191.055	212.719	199.811	
581.888	2829.28	0.677226	191.336	206.046	199.729	
582.073	2833.27	0.908774	192.483	203.888	200.896	
582.258	2835.83	0.773692	192.375	201.1	199.929	
582.443	2841.38	1.78525	192.146	206.252	199.438	
582.628	2835.34	1.82694	191.126	209.818	199.527	
582.813	2840.75	0.650522	191.82	204.573	198.067	
582.998	2847.79	0.458982	193.123	206.929	200.035	
583.183	2847.35	1.77639	191.726	204.86	199.898	
583.368	2863.52	0.0778895	191.25	203.064	198.427	
583.553	2855.56	0.489386	191.044	201.666	198.7	
583.738	2858.07	0.884714	193.022	205.838	198.957	
583.923	2858.13	2.66406	189.607	213.108	200.958	
584.107	2873.09	0.984516	191.486	205.21	200.231	
584.292	2870.16	1.14267	190.838	206.055	198.195	
584.477	2873.5	0.655719	192.072	205.167	198.89	
584.662	2880.26	2.41998	189.638	197.63	198.116	
584.846	2885.86	0.607869	192.541	209.22	198.976	
585.031	2884.23	0.692721	188.844	194.289	197.105	
585.216	2886.3	0.405762	191.347	204.402	199.218	
585.4	2892.38	1.71882	190.048	211.703	197.681	
585.585	2897.32	1.60658	189.257	200.364	198.233	
585.77	2899.17	2.77897	188.266	204.316	197.341	
585.954	2896.88	1.94273	188.215	207.453	198.863	
586.139	2902.7	1.27167	189.474	206.771	195.946	
586.323	2907.07	1.04671	189.492	202.879	197.361	
586.508	2909.75	1.26464	187.345	202.365	198.15	
586.692	2914.4	1.57975	188.934	204.997	197.032	
586.877	2917.24	0.256952	189.944	201.365	197.291	
587.061	2923.19	1.13913	188.116	203.744	196.168	
587.246	2922.65	1.08108	186.051	202.276	193.849	
587.43	2919.92	1.32714	187.482	197.492	194.937	
587.614	2927.72	1.39852	187.409	204.127	196.274	
587.799	2941.59	0.972477	189.85	198.615	196.295	
587.983	2940.71	1.09275	186.423	203.446	196.123	
588.167	2943.18	0.172521	188.38	203.983	196.45	
588.351	2946.82	0.87005	187.892	206.484	194.154	
588.536	2943.15	2.00348	188.159	208.27	196.564	
588.72	2947.31	0.471858	188.227	196.379	193.674	
588.904	2957.36	1.18853	188.188	199.304	195.323	
589.088	2953.02	0.432266	185.282	210.104	195.657	
589.272	2963.23	-0.623763	187.98	197.49	194.391	
589.456	2958.47	1.90547	187.412	203.984	194.245	
589.641	2969.05	0.057705	188.422	197.443	195.885	
589.825	2970.29	0.271501	186.419	198.415	192.273	
590.009	2971.66	0.173126	186.192	202.523	193.905	
590.193	2979.27	2.49668	187.255	200.856	197.812	
590.377	2977.99	0.202079	186.102	197.553	194.743	
590.561	2983.38	2.27532	185.39	197.133	195.785	
590.745	2990.35	-0.0231612	186.369	198.972	194.88	
590.928	2986.63	1.02805	185.94	201.862	192.043	
591.112	2997.34	0.584287	188.729	202.227	196.384	
591.296	2993.35	1.27755	185.307	208.102	195.943	
591.48	2998.97	0.358637	185.508	209.224	192.777	
591.664	3007.68	0.150644	185.918	200.461	192.484	
591.848	3006.65	0.544501	185.941	196.599	192.989	
592.031	3010.36	-0.289811	187.218	204.722	193.845	
592.215	3007.49	1.1292	186.179	197.877	192.337	
592.399	3017.78	1.48973	185.314	196.598	193.217	
592.582	3020.23	0.382573	185.596	197.634	192.958	
592.766	3024.34	1.44208	183.899	194.71	191.582	
592.95	3016.27	0.865893	185.207	198.157	193.539	
593.133	3024.2	2.16815	184.308	199.765	191.921	
593.317	3034.1	0.0520481	186.75	198.76	193.247	
593.5	3031.64	0.67578	184.727	199.436	191.408	
593.684	3038.84	0.184849	184.8	202.438	193.812	
593.867	3041.96	0.739346	185.732	201.154	192.471	
594.051	3044.3	0.363284	183.839	198.428	191.009	
594.234	3048.33	1.01062	184.429	202.389	190.916	
594.418	3048.97	-0.248084	183.93	198.565	193.296	
594.601	3056.4	0.889526	184.571	197.336	192.965	
594.785	3058.89	0.0403609	183.744	201.522	191.547	
594.968	3065.41	1.15452	183.1	199.495	193.51	
595.151	3070.29	-0.80773	183.487	199.873	189.815	
595.334	3068.37	1.17553	183.856	201.662	194.728	
595.518	3076.93	-0.893184	184.678	200.102	193.763	
595.701	3075.24	0.155067	185.367	201.984	191.895	
595.884	3081.69	-0.741884	184.265	199.601	192.7	
596.067	3078.6	-0.270093	181.834	193.749	191.431	
596.251	3082.14	-0.303791	184.861	199.631	193.154	
596.434	3089.57	0.924121	183.1	200.282	191.901	
596.617	3099.55	-0.401852	182.726	202.78	192.179	
596.8	3102.33	1.38997	184.712	201.35	190.915	
596.983	3108.57	-0.4077	182.59	196.793	192.161	
597.166	3099.31	2.60411	183.2	193.139	191.289	
597.349	3112.32	-0.756627	181.491	190.968	191.235	
597.532	3106.65	0.645648	183.118	203.916	191.365	
597.715	3116.91	-0.103089	183.707	192.508	190.675	
597.898	3114.14	1.00579	182.631	206.804	192.727	
598.081	3121.16	1.13128	181.305	191.741	189.208	
598.264	3114.85	0.0912406	179.953	199.532	190.218	
598.447	3128.17	0.28585	182.988	196.956	191.601	
598.63	3124.78	1.15304	181.741	201.605	190.284	
598.812	3135.51	0.171535	181.495	197.048	190.167	
598.995	3134.55	1.06689	180.724	193.808	189.51	
599.178	3135.38	0.165229	182.254	200.543	190.173	
599.361	3134.74	-0.022765	180.794	197.527	187.719	
599.543	3140.48	-0.125328	183.754	188.881	189.413	
599.726	3143.66	0.250145	179.796	195.164	189.233	
599.909	3148.42	0.307227	181.571	192.438	188.91	
600.091	3152	1.45487	178.706	205.398	189.315	
600.274	3146.05	-5.96046e-09	179.907	199.242	187.724	
600.457	3160.33	-0.0794035	181.066	189.65	188.459	
600.639	3159.02	0.130348	180.801	197.84	187.942	
600.822	3159.92	1.61909	179.066	186.954	186.935	
601.004	3168.92	1.2012	178.82	192.022	186.639	
601.187	3172.49	-0.0113244	180.866	197.248	188.831	
601.369	3171.7	-0.231545	180.304	192.069	187.872	
601.552	3177.53	1.07947	181.404	195.74	189.297	
601.734	3181.74	0.598851	179.601	193.31	188.828	
601.917	3176.87	0.231381	180.058	199.321	186.153	
602.099	3182.3	0.512994	179.334	197.373	187.113	
602.281	3195.75	0.349973	177.444	197.294	187.096	
602.464	3184.4	0.185699	178.984	192.902	186.637	
602.646	3200.36	-0.0845748	177.594	196.163	189.265	
602.828	3201.21	-1.34141	181.188	200.106	188.89	
603.01	3196.35	1.30508	176.981	195.976	189.076	
603.193	3196.97	-0.297897	180.158	184.168	188.477	
603.375	3201.21	1.73636	178.811	190.331	187.221	
603.557	3208.35	-1.20345	179.192	195.762	187.327	
603.739	3205.36	0.235858	175.781	202.287	187.967	
603.921	3216.57	-0.820228	178.199	189.248	187.375	
604.103	3216.4	0.680884	179.281	193.349	186.633	
604.285	3219.47	-0.056271	176.935	198.412	186.782	
604.467	3229.23	0.484674	177.503	194.354	187.76	
604.65	3227.41	-0.196984	177.578	194.013	188.122	
604.832	3228.03	0.286721	177.096	198.31	188.265	
605.013	3228.92	-0.0898621	177.646	191.238	186.857	
605.195	3236.25	-0.101241	176.57	191.419	186.188	
605.377	3236.43	-0.12359	175.528	192.755	185.902	
605.559	3238.36	0.12342	174.103	187.717	185.959	
605.741	3245.77	-1.07757	177.072	200.607	185.51	
605.923	3241.05	1.33253	177.986	193.065	185.208	
606.105	3249	0.593963	175.622	190.023	185.223	
606.287	3244.33	1.12973	177.118	193.709	185.731	
606.468	3251.15	-0.0783062	175.348	196.118	186.031	
606.65	3255.44	1.17886	176.484	195.294	185.423	
606.832	3251.53	-0.457911	176.595	188.397	184.097	
607.013	3255.83	0.106213	176.663	189.819	186.893	
607.195	3258.76	0.106131	175.644	193.556	183.631	
607.377	3262.51	1.27259	174.452	184.146	182.006	
607.558	3265.8	-0.0391198	175.566	192.592	185.961	
607.74	3263.3	1.32944	175.346	189.814	184.098	
607.922	3264.95	-0.412867	175.204	193.523	184.057	
608.103	3260.74	1.39286	177.267	183.117	183.042	
608.285	3271.84	0.206663	175.077	186.472	183.735	
608.466	3270.67	1.62795	173.534	187.9	183.328	
608.648	3275.25	0.278984	175.557	196.5	185.731	
608.829	3272.31	2.50224	173.613	192.171	182.604	
609.01	3273.7	1.39972	176.393	189.107	184.46	
609.192	3277.08	1.96317	173.612	194.638	184.506	
609.373	3280.41	2.29363	173.741	187.916	182.819	
609.555	3280.39	2.80359	173	187.306	183.032	
609.736	3291.24	3.98426	175.151	194.821	184.576	
609.917	3288.36	5.67549	173.739	191.837	183.058	
610.099	3287.41	5.83554	174.975	187.347	184.664	
610.28	3290.41	8.76094	173.098	190.84	186.032	
610.461	3296.35	8.85435	175.155	184.627	182.818	
610.642	3295.88	7.46328	174.153	191.117	183.895	
610.823	3296.15	7.32242	173.142	184.534	182.89	
611.004	3298.87	8.31206	173.576	189.355	183.877	
611.186	3301.47	7.51259	174.172	185.43	183.859	
611.367	3300.36	7.44788	173.743	191.783	182.884	
611.548	3305.35	6.17058	173.188	189.299	182.405	
611.729	3303.26	5.97989	172.892	181.791	183.177	
611.91	3303.89	5.90706	171.625	187.981	183.484	
612.091	3307.57	5.75378	172.859	190.257	184.22	
612.272	3309.2	3.43298	171.141	194.74	183.015	
612.453	3300.5	4.39811	171.798	184.754	181.777	
612.634	3305.87	3.79818	171.886	191.918	182.802	
612.815	3304.25	3.36745	171.612	190.314	181.301	
612.995	3300.55	3.02506	171.302	186.39	181.048	
613.176	3301.05	2.61536	172.823	181.466	181.448	
613.357	3297.58	2.57437	171.741	184.725	182.627	
613.538	3298.76	3.44326	169.641	188.732	180.78	
613.719	3301.24	2.64876	171.324	178.819	180.51	
613.899	3296.49	3.7255	169.615	189.228	179.835	
614.08	3301.93	1.24249	171.571	181.059	180.664	
614.261	3299.06	2.16216	171.251	192.477	182.673	
614.441	3299.49	2.56172	173.384	188.068	180.566	
614.622	3298.26	1.56019	170.204	186.409	181.058	
614.803	3301.66	1.26288	171.105	187.264	178.958	
614.983	3297.47	2.26705	172.054	187.281	179.327	
615.164	3302.29	0.510588	170.466	182.796	180.395	
615.344	3294.41	1.10419	169.908	186.121	180.723	
615.525	3299.75	1.35266	170.981	187.35	179.184	
615.705	3302.36	2.12737	170.626	187.596	180.466	
615.886	3300.66	0.56849	171.832	186.158	181.117	
616.066	3295.58	1.96722	170.413	184.93	179.112	
616.247	3294.32	-0.392949	169.498	185.558	180.774	
616.427	3296.72	0.855573	169.738	182.705	179.663	
616.607	3300.01	0.902844	168.933	180.837	180.056	
616.788	3298.33	0.686165	168.476	186.831	180.236	
616.968	3292.15	0.0457725	171.302	184.709	179.884	
617.148	3293.16	0.933729	169.576	182.656	179.486	
617.329	3289.58	0.973774	168.913	187.835	177.964	
617.509	3287.08	0.212108	170.14	188.255	181.548	
617.689	3286.99	-0.556708	170.753	175.306	179.457	
617.869	3282.76	0.769179	169.221	183.725	178.826	
618.049	3283.97	0.873313	169.582	182.815	178.391	
618.23	3280.62	1.28644	168.817	182.083	178.886	
618.41	3285.51	0.47807	170.089	186.447	179.727	
618.59	3286.72	1.30385	169.396	183.646	180.3	
618.77	3273.75	1.05832	169.477	188.784	178.891	
618.95	3274.39	2.46584	167.53	188.539	176.978	
619.13	3271.97	0.42075	166.398	181.902	176.119	
619.31	3277.62	1.17957	167.887	181.648	179.201	
619.49	3273.99	0.428074	167.386	189.735	180.267	
619.67	3266.87	0.428054	168.277	192.168	178.786	
619.85	3264.27	0.0346939	169.863	185.399	178.286	
620.03	3264.77	1.18767	167.17	178.892	178.12	
620.209	3257.75	1.1573	168.538	188.096	179.706	
620.389	3261.33	1.32867	170.71	181.425	179.529	
620.569	3259.58	-0.702011	169.633	187.831	178.626	
620.749	3254.07	0.551519	168.639	179.186	178.024	
620.929	3251.44	-0.0871458	167.92	180.798	178.978	
621.108	3254.75	1.52497	167.68	186.791	178.506	
621.288	3248.66	0.675053	168.09	185.122	177.362	
621.468	3247.18	0.559198	168.954	184.157	176.157	
621.647	3241.94	1.8403	169.558	188.311	180.119	
621.827	3241.19	0.484015	170.239	184.235	178.889	
622.007	3233.34	0.717252	168.718	181.138	176.901	
622.186	3236.33	0.847809	168.27	187.155	179.203	
622.366	3228.08	0.917175	169.755	182.121	178.323	
622.545	3224.5	1.00526	170.063	174.641	178.148	
622.725	3222.29	0.567691	170.225	189.304	177.658	
622.904	3226.19	0.663348	169.43	185.397	180.564	
623.084	3222.36	1.12603	169.534	185.76	179.758	
623.263	3214.96	1.86673	169.491	187.806	178.374	
623.443	3210.18	-0.0997781	169.656	194.855	178.264	
623.622	3210.4	0.588282	170.588	182.962	179.903	
623.802	3207.89	-0.0353039	171.01	186.269	179.679	
623.981	3202.77	1.44208	169.283	179.348	179.132	
624.16	3200.79	-0.430282	170.131	189.66	180.112	
624.339	3197.12	1.63192	170.682	184.095	179.539	
624.519	3197.82	0.0766787	169.696	183.38	179.035	
624.698	3189.44	1.46934	170.3	188.672	180.411	
624.877	3188.44	0.0472802	168.662	185.841	178.611	
625.056	3178.46	1.2937	168.914	185.691	178.208	
625.235	3182.92	0.0651108	169.931	183.506	179.185	
625.415	3174.51	0.473472	170.553	180.594	180.022	
625.594	3177.41	0.415129	171.389	189.596	180.403	
625.773	3167.57	1.87459	171.839	192.305	180.52	
625.952	3162.65	0.183943	171.247	185.231	179.851	
626.131	3164.08	1.84343	171.514	182	179.007	
626.31	3158.51	-0.915635	171.156	191.451	180.392	
626.489	3153.61	1.83355	170.78	181.575	179.313	
626.668	3150.31	-0.0476781	170.209	179.466	180.599	
626.847	3146.77	0.680573	172.712	187.08	179.299	
627.026	3136.71	0.35814	173.127	184.09	181.304	
627.205	3136.2	1.39346	171.495	189.695	180.924	
627.383	3127.32	0.346659	171.564	188.618	181.546	
627.562	3122.69	0.718327	170.818	191.59	178.5	
627.741	3121.95	3.23757	173.278	190.285	181.052	
627.92	3118.88	-0.324202	174.877	192.108	182.181	
628.099	3114.53	-1.44039	173.067	188.451	181.129	
628.277	3110.3	1.37104	172.145	185.114	179.963	
628.456	3109.87	1.00633	174.588	183.507	181.498	
628.635	3105.6	1.4538	173.248	190.4	180.909	
628.813	3103.89	-0.380895	175.286	192.074	181.937	
628.992	3092.36	0.120971	175.563	189.798	183.83	
629.171	3096.38	0.532548	174.204	187.033	182.958	
629.349	3088.17	1.06764	174.016	186.613	181.356	
629.528	3082.53	0.188134	176.278	193.189	184.45	
629.706	3074.31	3.15793	176.858	197.243	180.725	
629.885	3070.44	0.49179	176.306	191.586	182.519	
630.063	3060.86	1.37883	177.061	193.218	184.269	
630.242	3066.01	0.376897	177.245	195.056	184.702	
630.42	3058.89	0.408177	176.684	189.254	184.868	
630.599	3049.37	0.0487053	178.832	189.445	185.65	
630.777	3042.25	1.24919	178.218	193.168	185.409	
630.955	3041.18	0.152494	178.21	189.007	183.944	
631.134	3025.15	1.92383	176.339	193.284	184.091	
631.312	3027.72	0.715118	178.488	185.313	188.023	
631.49	3025.33	2.24843	179.104	187.967	186.538	
631.669	3014.87	0.0735077	179.424	190.838	186.836	
631.847	3014.8	1.56044	180.878	183.069	187.144	
632.025	3008.63	-1.05086	179.179	194.256	186.021	
632.203	3004.37	-0.357975	179.802	187.764	186.941	
632.381	2993.1	1.85254	180.777	191.521	186.787	
632.56	3001.37	1.20339	182.968	197.008	187.683	
632.738	2990.42	-0.997942	180.154	203.171	190.155	
632.916	2981.69	0.663081	180.843	195.014	187.557	
633.094	2979.24	-0.534524	181.823	183.709	188.66	
633.272	2975.55	1.07013	182.605	194.882	189.241	
633.45	2970.67	1.47998	183.418	198.218	188.89	
633.628	2963.15	1.28774	184.127	193.168	190.928	
633.806	2959.58	-0.0685122	185.076	204.26	190.931	
633.984	2947.27	0.00622782	183.843	196.194	190.07	
634.162	2942.78	-0.317755	183.785	201.812	188.5	
634.339	2938.42	-0.736794	185.472	196.774	192.424	
634.517	2927.98	-0.243743	185.101	198.538	193.205	
634.695	2917.42	0.387612	187.202	197.601	189.536	
634.873	2919.95	-0.882412	187.088	196.809	192.095	
635.051	2912.47	0.978607	185.651	191.694	191.171	
635.229	2893.71	1.45912	187.2	196.593	192.168	
635.406	2900.49	0.610947	187.288	196.315	192.033	
635.584	2895.39	-0.289767	188.672	190.919	194.698	
635.762	2883.9	1.16151	187.503	193.752	191.858	
635.939	2878.97	-0.442004	188.045	201.2	193.055	
636.117	2870.68	-0.107487	189.976	202.6	194.254	
636.295	2871.92	-0.881076	189.854	203.123	195.305	
636.472	2862.07	-0.253758	190.282	204.281	197.218	
636.65	2854.55	-0.69793	192.565	190.662	196.499	
636.827	2853.36	1.75687	189.893	208.947	196.301	
637.005	2848.23	-0.248121	194.306	206.818	197.297	
637.182	2837.79	1.43299	193.698	201.574	198.984	
637.36	2833.83	0.693813	195.594	212.313	200.771	
637.537	2823.53	4.87361	193.341	203.076	197.71	
637.715	2822.03	-1.21738	194.112	207.496	197.66	
637.892	2816.04	1.27164	194.882	202.465	200.25	
638.069	2808.09	0.491784	196.024	203.113	199.089	
638.247	2797.34	0.633517	196.759	200.108	199.234	
638.424	2795.87	1.11381	198.818	203.917	201.485	
638.601	2787.56	1.38557	197.127	203.179	201.575	
638.778	2782.68	-0.885383	200.672	203.067	204.201	
638.956	2778.75	-0.341298	199.292	206.376	202.319	
639.133	2768.38	-0.605384	199.921	208.851	202.733	
639.31	2757.99	0.0515227	201.231	208.229	203.957	
639.487	2753.29	0.212853	200.256	200.772	202.879	
639.664	2741.42	2.08185	202.043	204.823	205.642	
639.841	2743.17	0.0453369	202.779	209.191	206.039	
640.019	2735.34	1.06339	203.931	214.111	205.422	
640.196	2732.22	-0.239998	201.135	208.357	205.957	
640.373	2725.32	1.0658	205.966	213.765	208.306	
640.55	2716.53	0.331941	206.619	215.709	207.921	
640.727	2708.55	0.201618	207.562	214.066	207.844	
640.904	2702.42	-0.82708	206.036	212.722	207.795	
641.081	2699.99	0.895026	209.693	213.199	210.412	
641.257	2689.14	2.15819	208.091	212.517	210.794	
641.434	2685.93	0.425935	212.659	211.611	211.851	
641.611	2675.37	-0.774307	209.465	211.806	210.428	
641.788	2667.59	0.505842	212.87	214.49	210.811	
641.965	2664.95	2.38391	211.053	218.582	212.743	
642.142	2655.71	-0.526949	211.289	216.339	211.991	
642.318	2652.41	0.244173	213.248	208.299	212.633	
642.495	2639.68	1.16097	212.232	212.913	212.034	
642.672	2635.1	0.244813	215.548	220.047	215.018	
642.848	2627.37	0.264467	214.88	214.417	213.183	
643.025	2623.31	-0.535964	215.522	210.449	214.397	
643.202	2615.8	0.636436	214.629	218.297	216.11	
643.378	2611.93	-0.497615	218.451	216.947	217.61	
643.555	2603.63	0.73071	219.587	224.747	216.598	
643.731	2596.33	2.25323	217.653	222.837	219.47	
643.908	2587.19	1.90083	220.285	223.197	220.774	
644.084	2586.11	-0.0133376	220.608	219.229	220.519	
644.261	2578.23	1.02441	222.771	225.182	220.004	
644.437	2567.49	-0.153848	221.479	222.772	219.717	
644.614	2561.05	-0.496442	222.281	222.929	220.38	
644.79	2551.76	0.616919	221.865	223.519	220.077	
644.967	2544.86	0.813996	224.977	217.33	220.806	
645.143	2544.31	0.895931	225.772	234.821	223.819	
645.319	2538.94	1.22281	229.172	224.376	226.177	
645.496	2540.54	-0.230136	225.637	231.165	227.036	
645.672	2521.01	0.141813	228.404	224.105	225.703	
645.848	2514.88	-0.723953	232.766	227.173	226.879	
646.024	2504.43	1.17863	230.107	230.762	225.004	
646.201	2505.36	-0.0475359	233.025	233.931	229.381	
646.377	2495.92	-0.713168	231.646	225.307	229.654	
646.553	2490.35	-0.238176	233.206	235.474	228.783	
646.729	2489.41	2.81686	233.381	236.268	231.88	
646.905	2481.18	0.0750336	236.738	219.617	230.462	
647.081	2469.76	3.22607	235.844	241.437	231.365	
647.257	2464.52	0.116011	239.54	237.72	231.761	
647.433	2460.74	-0.458194	238.737	233.016	234.338	
647.609	2452.74	0.657178	240.783	241.102	234.736	
647.785	2444.83	-0.205949	240.494	243.926	235.78	
647.961	2436.73	-0.0685294	242.763	238.537	236.504	
648.137	2430.28	1.13271	243.32	234.944	235.608	
648.313	2428.9	-1.49987	245.645	236.127	239.705	
648.489	2421.22	0.489061	246.165	241.458	238.221	
648.665	2407.26	-1.20919	242.823	237.647	239.823	
648.841	2405.2	2.80257	244.269	247.597	241.078	
649.016	2399.33	0.51675	247.989	236.644	238.757	
649.192	2392.85	0.289908	247.119	237.11	240.906	
649.368	2386.01	0.4284	249.935	244.914	245.835	
649.544	2371.05	2.00098	249.709	241.015	240.578	
649.719	2369.65	1.03648	249.92	239.578	241.605	
649.895	2364.5	1.30794	254.873	237.941	243.616	
650.071	2347.94	0.00690755	252.043	241.682	242.488	
650.246	2345.12	-0.0761006	256.113	245.321	246.128	
650.422	2337.16	0.525756	252.672	240.796	246.653	
650.597	2330.77	0.0761704	254.414	243.842	249.682	
650.773	2323.85	0.560778	257.03	249.068	248.814	
650.949	2314.79	0.976752	256.849	244.333	247.128	
651.124	2306.66	0.729013	257.765	242.699	249.526	
651.3	2299.4	0.458052	258.311	252.227	249.381	
651.475	2294.98	-0.750898	261.023	247.442	251.359	
651.65	2286.52	-0.382037	260.155	257.84	252.283	
651.826	2278.93	1.37724	260.877	251.486	253.434	
652.001	2269.94	0.765668	261.838	257.87	253.601	
652.177	2269.62	-0.0069736	264.206	250.004	255.141	
652.352	2257.45	0.264691	266.625	266.16	255.735	
652.527	2251.53	-1.47051	266.666	255.422	254.981	
652.702	2241.9	0.432171	270.792	261.219	257.502	
652.878	2232	0.534928	267.439	251.784	255.698	
653.053	2228.05	1.9989	269.144	255.748	258.418	
653.228	2228.9	-0.384085	268.275	260.151	259.546	
653.403	2215.11	-0.0209436	269.532	259.874	259.246	
653.578	2213.46	-0.251992	273.577	260.931	261.887	
653.754	2206.9	0.518884	273.089	270.472	263.203	
653.929	2194.98	0.699456	273.408	262.24	264.711	
654.104	2193.43	-0.743715	276.791	257.753	261.636	
654.279	2183.22	1.04942	277.193	258.186	266.488	
654.454	2173.03	1.10204	276.589	261.801	264.398	
654.629	2165.89	-0.119088	278.79	262.561	266.974	
654.804	2164.02	1.01181	279.01	268.447	269.524	
654.979	2162.11	-0.365439	283.241	266.469	271.365	
655.154	2152.85	2.70756	283.522	263.597	268.566	
655.329	2141.09	-0.203566	282.048	268.664	269.811	
655.503	2126.56	0.519108	283.157	257.716	270.203	
655.678	2125.76	0.72306	285.88	271.302	273.806	
655.853	2118.08	-0.653016	283.814	268.039	269.256	
656.028	2104.5	0.715844	283.816	267.136	273.125	
656.203	2099	1.70213	288.792	265.792	270.223	
656.377	2096.16	-0.603347	290.128	267.514	274.53	
656.552	2084.24	1.83034	290.935	265.99	277.019	
656.727	2080.85	-0.492976	291.903	262.77	273.616	
656.902	2074.13	0.358854	294.017	267.677	275.276	
657.076	2065.46	1.29644	292.787	277.262	277.92	
657.251	2056.98	0.704332	293.65	283.226	279.751	
657.425	2050.7	-1.3662	295.198	264.212	279.471	
657.6	2046.15	0.183115	296.087	272.517	280.382	
657.775	2038.6	0.506264	298.192	272.785	278.715	
657.949	2032.81	0.998842	298.297	271.193	282.893	
658.124	2025.95	0.323339	299.173	284.341	281.951	
658.298	2021.35	0.570417	302.375	274.582	281.084	
658.472	2010.26	-0.88483	301.898	271.257	283.405	
658.647	2009.97	0.676591	302.246	284.556	283.569	
658.821	2000.95	-0.218124	304.696	272.282	286.66	
658.996	1994.58	0.408854	304.643	283.378	287.466	
659.17	1992.13	-0.77541	307.864	289.066	290.805	
659.344	1979.79	1.53546	308.057	279.461	289.791	
659.519	1976.21	1.50298	309.832	282.384	289.487	
659.693	1969.71	1.63535	309.886	290.36	292.945	
659.867	1964.92	0.881123	313.905	283.665	291.983	
660.041	1954.68	-0.232857	313.917	294.113	293.666	
660.216	1954.22	0.902628	316.209	279.61	293.432	
660.39	1950.48	-0.0211972	316.872	292.613	296.357	
660.564	1943.23	-0.663841	317.283	296.921	297.533	
660.738	1936.65	1.58976	319.951	286.954	295.904	
660.912	1929.98	-0.68397	317.39	291.724	300.797	
661.086	1925.51	0.613978	320.327	297.744	300.99	
661.26	1914.03	-0.436409	320.695	280.456	298.546	
661.434	1909.88	2.35483	325.075	294.876	303.383	
661.608	1901.36	-0.380484	324.574	298.786	302.825	
661.782	1897.78	1.0432	324.483	299.743	299.578	
661.956	1888.46	0.53476	327.747	294.794	302.44	
662.13	1882.01	-0.457314	327.336	299.006	302.735	
662.304	1875.18	-0.246229	327.921	289.65	304.26	
662.478	1864.66	0.463246	327.819	295.86	304.633	
662.652	1859.92	-0.168649	327.606	308.586	309.945	
662.826	1852.34	-0.330555	334.125	304.399	306.837	
662.999	1848.97	-0.696067	332.326	310.671	310.155	
663.173	1838.84	0.456872	333.997	301.711	309.091	
663.347	1837.49	0.859097	335.865	302.628	312.486	
663.521	1826.58	0.851327	335.73	300.293	312.371	
663.694	1819.98	-1.52496	336.48	303.404	312.353	
663.868	1813.36	2.37601	339.095	302.189	312.968	
664.042	1805.98	-0.294785	339.244	304.759	315.451	
664.215	1803.66	0.35169	340.162	320.819	318.193	
664.389	1798.2	-0.809469	344.761	316.136	319.679	
664.562	1789.65	1.27237	343.347	315.182	317.83	
664.736	1781.66	0.651896	340.647	313.801	317.235	
664.909	1779.43	1.69987	345.715	296.171	316.471	
665.083	1771.59	-1.58457	345.236	319.27	320.836	
665.256	1763.21	0.154153	349.793	309.714	321.555	
665.43	1757.54	0.287108	348.542	318.081	323.963	
665.603	1752.7	0.72353	350.446	327.359	324.315	
665.777	1739.54	1.23232	349.548	318.017	323.875	
665.95	1738.55	-0.511921	349.352	313.822	324.387	
666.123	1729.72	0.736121	349.314	312.017	323.912	
666.297	1723.54	1.52768	353.617	313.953	326.123	
666.47	1718.54	-0.0701908	353.621	318.245	327.206	
666.643	1707.23	-4.76837e-09	356.324	328.024	325.712	
666.816	1704.04	0.568053	356.978	318.243	329.394	
666.99	1686.55	-0.139659	356.161	321.433	327.508	
667.163	1689.31	0.490332	357.601	322.905	327.528	
667.336	1680.81	-1.09084	357.717	316.065	327.882	
667.509	1665.93	-0.160105	356.181	326.851	331.84	
667.682	1662	0.250768	355.264	329.955	328.539	
667.855	1649.44	-1.53778	358.761	325.036	328.84	
668.029	1646.02	0.620419	360.645	319.098	331.111	
668.202	1646.23	2.09651	362.437	321.136	331.665	
668.375	1635.86	0.796322	361.06	315.399	333.491	
668.548	1628.82	-0.58008	364.167	329.339	334.79	
668.721	1623.31	0.915171	363.898	314.414	331.343	
668.893	1618.1	-0.880659	366.161	320.357	334.476	
669.066	1601.03	1.81391	364.672	325.673	336.207	
669.239	1597.76	-0.299882	365.982	320.72	336.063	
669.412	1592.33	0.894584	364.827	333.82	336.778	
669.585	1586.03	1.17163	369.648	322.783	338.521	
669.758	1576.82	1.6156	368.899	326.142	337.841	
669.931	1567.83	-0.00694554	372.137	333.011	339.424	
670.103	1566.44	0.264617	367.488	330.952	340.074	
670.276	1559.48	-0.375451	373.437	335.243	340.435	
670.449	1551.09	-0.236048	372.788	336.779	340.666	
670.622	1544.28	-0.901789	371.382	335.542	344.421	
670.794	1536.66	1.11626	374.605	329.885	343.22	
670.967	1531.52	-0.478062	376.879	332.052	345.586	
671.139	1522.41	-0.409193	371.913	335.109	341.767	
671.312	1517.11	-0.0969438	374.501	321.805	342.902	
671.485	1505.32	0.994237	375.89	330.39	340.908	
671.657	1500.72	-0.712119	375.981	338.07	343.394	
671.83	1495.31	0.393925	377.417	333.855	343.945	
672.002	1488.94	-0.255757	380.113	333.432	346.035	
672.175	1480.86	0.0759823	379.451	339.779	347.331	
672.347	1469.69	-0.744263	378.228	345.379	343.863	
672.519	1466.48	-0.806135	380.25	337.44	348.579	
672.692	1463.27	0.0137898	382.516	336.803	348.409	
672.864	1456.31	0.896204	383.256	340.882	350.648	
673.037	1451.21	-0.17946	381.14	341.36	349.413	
673.209	1438.13	0.667651	383.241	339.511	351.12	
673.381	1433.97	-0.0274914	382.824	331.484	348.506	
673.553	1426.46	1.4984	384.245	334.665	350.565	
673.726	1422.84	-0.557086	383.885	333.495	351.95	
673.898	1415.62	0.749436	386.778	341.468	352.285	
674.07	1410.91	0.268267	386.199	339.791	354.351	
674.242	1401.65	1.22925	389.249	348.434	355.965	
674.414	1397.94	0.487198	389.15	341.985	354.04	
674.587	1386.88	2.79105	387.712	346.612	355.161	
674.759	1386.25	0.123795	389.767	336.627	355.357	
674.931	1379.93	0.988292	391.117	345.545	356.458	
675.103	1369.95	-0.0959249	390.282	349.057	355.498	
675.275	1367.01	-0.432702	390.981	349.451	357.006	
675.447	1357.71	-0.679249	393.283	351.11	356.965	
675.619	1350.85	0.329244	394.443	349.423	358.569	
675.791	1343.95	-0.651282	394.32	348.731	356.432	
675.963	1340.58	0.171653	395.717	353.949	357.244	
676.134	1334.69	-0.336631	396.76	349.196	359.135	
676.306	1330.27	0.240703	393.795	346.159	359.615	
676.478	1321.63	-0.123543	397.402	350.342	365.121	
676.65	1318.46	-0.618169	397.581	347.898	361.979	
676.822	1311.62	1.75803	398.955	343.009	359.788	
676.994	1306.89	0.322641	395.878	354.987	364.987	
677.165	1304.06	-0.460159	399.461	362.763	364.778	
677.337	1293.54	0.829462	401.211	350.3	365.564	
677.509	1290.66	-0.685784	402.873	355.394	366.984	
677.68	1284.2	0.75537	402.653	352.868	365.526	
677.852	1276.77	-1.07033	404.081	351.571	367.854	
678.024	1275	1.73321	401.761	372.186	369.848	
678.195	1264.7	-1.44459	404.282	354.845	368.191	
678.367	1259.82	1.502	405.235	359.716	369.132	
678.538	1257.78	-0.25465	404.005	363.055	371.681	
678.71	1248.18	0.419608	405.545	363.264	369.821	
678.881	1244.57	-0.268607	405.413	358.969	369.713	
679.053	1236.23	-0.289503	409.273	356.22	370.236	
679.224	1229.33	0.248006	406.96	352.858	369.782	
679.396	1225.94	0.986151	407.191	362.848	372.963	
679.567	1219.31	0.0275622	406.417	355.105	370.793	
679.738	1216.14	0.503769	405.653	362.43	372.345	
679.91	1204.87	-0.393178	411.506	356.944	373.912	
680.081	1203.6	-0.448967	412.704	351.783	372.274	
680.252	1196.9	-0.689912	408.007	345.57	373.075	
680.424	1187.79	0.0690518	409.461	359.767	372.426	
680.595	1185.61	1.60681	414.883	366.333	372.543	
680.766	1175.99	0.851076	409.525	358.621	373.659	
680.937	1171.32	0.926149	412.249	366.817	374.443	
681.108	1163.21	2.04046	413.019	361.604	373.386	
681.28	1160.2	-0.0138702	411.239	365.999	376.61	
681.451	1150.4	0.59549	415.472	363.332	376.742	
681.622	1144.36	0.802704	412.908	365.299	376.071	
681.793	1141.41	0.768593	411.758	364.05	376.421	
681.964	1133.55	0.0345863	413.415	364.671	376.638	
682.135	1131.05	0.367472	412.81	365.039	376.987	
682.306	1124.9	-1.27674	414.481	366.395	376.341	
682.477	1121.06	1.39709	412.755	361.852	376.75	
682.648	1115.8	-1.24907	415.582	367.678	377.508	
682.819	1107.74	0.326445	413.282	355.679	375.335	
682.99	1102.87	0.223155	415.238	356.358	376.977	
683.16	1093.82	2.33773	415.265	364.012	375.886	
683.331	1091.3	0.557437	415.019	367.915	378.762	
683.502	1083.71	0.746019	417.315	359.051	376.784	
683.673	1078.65	0.174448	413.193	363.975	377.629	
683.844	1070.24	1.08764	414.558	362.778	379.256	
684.014	1065.83	-0.153467	413.377	359.593	378.986	
684.185	1060.52	0.776616	415.944	374.455	381.755	
684.356	1056.37	0.789997	417.899	369.823	378.982	
684.526	1050.15	1.64392	417.461	365.602	382.041	
684.697	1044.25	0.350179	419.9	364.431	381.94	
684.868	1040.39	8.34465e-09	417.442	388.619	380.52	
685.038	1036.95	-1.07394	419.954	375.429	380.693	
685.209	1029.9	-0.414267	416.194	368.354	381.016	
685.379	1024.2	2.04979	417.773	373.033	380.919	
685.55	1017.6	-0.351344	419.87	365.482	379.091	
685.72	1012.37	1.30062	417.332	362.26	380.305	
685.891	1006.58	0.394639	417.751	365.626	379.955	
686.061	999.886	0.48557	415.286	370.553	380.17	
686.232	993.95	0.648475	417.373	368.714	382.624	
686.402	994.026	-0.459661	418.779	361.569	380.851	
686.572	985.212	3.26994	414.995	371.113	379.659	
686.743	977.204	-0.605516	415.539	380.264	382.306	
686.913	974.874	0.856252	416.077	371.896	378.595	
687.083	969.644	-0.876655	418.881	358.34	380.586	
687.254	965.442	2.47591	420.72	370.776	381.111	
687.424	958.443	-0.403934	417.932	369.578	381.862	
687.594	952.024	0.326571	420.578	358.127	379.78	
687.764	950.714	-1.22896	417.658	364.924	382.873	
687.934	943.134	1.64576	418.526	365.9	382.215	
688.104	938.687	-0.356154	417.859	365.029	381.365	
688.275	933.534	-0.0285609	413.709	363.037	376.152	
688.445	927.384	-0.413635	419.828	363.25	381.983	
688.615	923.667	1.44365	415.863	368.36	379.343	
688.785	918.598	-0.558223	417.598	368.312	381.958	
688.955	912.877	-1.17406	412.674	365.305	379.098	
689.125	911.546	-1.52195	416.829	366.768	380.791	
689.295	904.004	0.258582	415.776	358.697	378.521	
689.465	899.465	1.57346	415.319	367.636	381.215	
689.635	891.519	0.23051	414.608	361.375	379.6	
689.805	889.888	0.447133	417.629	366.714	379.31	
689.974	883.955	0.556861	417.287	356.225	379.801	
690.144	878.526	1.99114	414.782	375.731	378.917	
690.314	874.434	0.116123	414.885	371.63	381.742	
690.484	869.458	-0.937598	417.684	366.346	380.907	
690.654	864.237	1.18622	415.856	363.871	378.596	
690.823	859.783	-0.342526	415.226	372.471	379.686	
690.993	856.525	0.680583	415.661	372.703	381.412	
691.163	856.183	-2.03899	418.298	356.199	382.897	
691.332	847.774	1.21865	414.565	360.117	377.149	
691.502	848.266	-1.58796	414.544	367.003	383.054	
691.672	838.582	1.39996	414.898	374.643	374.865	
691.841	833.959	-1.46695	413.543	366.856	378.208	
692.011	831.8	0.466617	413.02	360.976	376.95	
692.18	828.372	1.94542	414.051	358.04	376.009	
692.35	819.584	2.81407	413.217	371.464	378.196	
692.519	818.772	-0.491353	413.506	358.613	377.721	
692.689	813.698	0.920008	413.126	363.336	377.522	
692.858	808.483	0.0896472	412.753	362.601	377.193	
693.027	804.89	0.720205	412.3	361.761	378.64	
693.197	802.33	-0.285345	412.566	363.507	377.224	
693.366	795.877	0.482304	408.21	368.269	377.137	
693.536	792.726	-0.324517	413.711	370.492	378.316	
693.705	784.273	0.602968	409.119	368.368	373.946	
693.874	782.956	-0.537246	410.335	363.496	378.503	
694.043	777.157	1.32066	410.898	360.374	375.2	
694.213	775.339	0.24272	409.512	366.075	376.163	
694.382	772.255	1.74038	411.857	367.991	377.431	
694.551	764.716	0.374771	408.76	360.728	376.356	
694.72	761.034	-0.130377	409.392	358.315	372.349	
694.889	756.16	0.837506	411.402	361.664	378.312	
695.058	753.237	1.39969	409.464	362.884	373.195	
695.228	746.443	0.533687	408.642	352.102	373.759	
695.397	744.211	-0.0465529	408.117	362.314	375.529	
695.566	742.515	-0.132339	407.868	364.43	373.642	
695.735	737.993	-0.19521	408.605	364.8	376.46	
695.904	733.681	0.375284	407.264	367.051	374.713	
696.073	727.704	0.666956	405.58	362.581	372.572	
696.242	723.66	0.392781	403.509	365.593	371.563	
696.41	722.984	2.10083	407.623	365.449	372.136	
696.579	718.353	0.633162	405.176	369.481	374.388	
696.748	714.108	0.532406	405.966	361.44	373.466	
696.917	709.384	-0.596803	404.704	364.758	373.511	
697.086	704.852	-0.447332	401.814	358.385	373.216	
697.255	701.008	-1.35189	405.152	355.876	373.261	
697.423	698.592	0.208974	401.541	356.638	370.57	
697.592	693.026	0.0886048	402.795	354.331	367.997	
697.761	689.704	2.13231	403.313	358.728	369.174	
697.929	685.066	-0.186638	400.643	353.524	370.132	
698.098	683.848	1.71705	399.795	353.655	371.612	
698.267	678.178	-0.146922	404.254	371.061	371.796	
698.435	676.201	0.786232	400.736	351.978	367.293	
698.604	671.65	1.01805	399.508	356.597	366.996	
698.772	664.108	1.98087	397.442	350.811	363.989	
698.941	663.423	0.239235	402.533	348.912	365.521	
699.109	658.228	-0.513762	400.356	350.858	366.934	
699.278	659.071	1.32986	397.842	348.665	365.177	
699.446	652.28	0.341521	393.254	356.131	366.322	
699.615	649.726	0.392483	392.516	359.949	366.156	
699.783	644.599	0.561307	392.033	346.988	364.777	
699.952	639.201	2.43547	392.012	353.017	364.13	
700.12	636.469	0.790634	391.137	350.512	360.717	
700.288	630.826	1.18467	391.267	345.673	361.58	
700.457	629.688	-0.482364	392.026	348.36	363.395	
700.625	626.221	2.36018	393.511	339.034	360.683	
700.793	622.071	1.48518	390.054	353.193	361.086	
700.961	619.81	0.298178	389.458	344.788	358.021	
701.13	615.83	3.36902	389.567	331.849	356.96	
701.298	613.287	-0.300131	386.045	347.971	359.176	
701.466	609.008	1.40271	388.674	341.917	357.464	
701.634	602.503	0.352976	385.929	354.534	355.911	
701.802	599.415	1.13629	384.679	339.517	354.465	
701.97	597.384	-1.67746	382.698	350.598	356.769	
702.138	594.49	-0.218341	385.188	348.507	356.6	
702.306	593.322	-0.148801	381.832	344.107	355.923	
702.474	587.742	-0.482965	384.39	342.563	353.159	
702.642	586.504	0.440874	380.095	346.148	353.79	
702.81	582.172	-0.123485	377.059	346.218	353.597	
702.978	576.89	0.663193	377.36	345.32	351.982	
703.146	575.459	-0.337643	379.185	334.817	352.144	
703.314	571.786	-0.918323	376.471	345.86	352.309	
703.482	568.488	1.0563	378.476	347.533	348.875	
703.65	565.117	-0.876581	377.526	332.027	351.258	
703.818	559.076	3.34506	376.246	347.183	350.249	
703.985	556.078	-0.279876	374.273	334.759	346.345	
704.153	555.466	1.52309	374.073	333.004	345.455	
704.321	551.292	-1.66301	375.065	338.018	346.227	
704.488	547.38	1.7349	371.111	337.63	345.209	
704.656	545.356	0.887428	370.042	334.332	343.541	
704.824	541.764	0.541801	368.917	332.124	341.95	
704.991	541.665	-1.03357	368.819	339.196	346.148	
705.159	537.253	2.09398	367.363	337.065	345.064	
705.327	533.631	-1.29776	369.69	328.408	341.17	
705.494	529.995	1.61791	367.147	334.479	340.182	
705.662	529.127	-0.139892	367.238	322.908	340.347	
705.829	522.142	0.878586	363.716	331.47	340.038	
705.997	520.216	0.53441	366.137	333.978	340.791	
706.164	518.361	-0.282342	362.813	333.982	336.492	
706.332	515.005	0.622066	361.59	320.59	336.739	
706.499	510.356	2.93172	360.269	331.047	338.226	
706.666	508.874	1.28252	356.904	322.007	336.13	
706.834	504.247	1.30834	356.481	319.618	331.46	
707.001	501.505	-1.39786	357.006	337.027	333.038	
707.168	500.399	0.346797	358.286	332.694	334.524	
707.336	498.258	-0.766475	359.264	328.022	333.165	
707.503	494.859	2.93893	355.539	320.732	328.128	
707.67	491.209	0.547831	355.921	311.736	331.138	
707.837	487.446	2.11469	354.208	317.918	329.928	
708.004	486.515	-0.304723	352.319	320.372	326.86	
708.172	482.977	5.11708	352.07	315.327	328.44	
708.339	480.517	-1.37658	346.463	327.152	329.925	
708.506	478.777	-1.03659	350.366	322.192	326.544	
708.673	474.146	1.36702	352.774	309.236	325.168	
708.84	472.285	1.86527	344.865	307.058	322.735	
709.007	471.92	-0.909482	350.959	315.085	325.527	
709.174	468.505	0.801938	345.649	313.335	323.35	
709.341	467.017	-0.895136	342.251	311.294	318.143	
709.508	463.106	1.75221	345.124	317.867	320.736	
709.675	460.575	0.432474	344.476	313.688	320.896	
709.842	459.754	0.185914	340.876	302.523	315.778	
710.009	453.809	-0.321931	343.875	310.643	320.024	
710.175	453.028	1.35628	340.213	297.995	320.426	
710.342	451.401	0.314551	337.89	310	317.864	
710.509	447.415	0.357983	339.406	307.328	318.805	
710.676	448.062	-1.05767	338.808	302.389	316.068	
710.843	443.6	0.159649	340.509	315.178	318.903	
711.009	440.342	1.9868	339.689	309.566	316.687	
711.176	440.435	1.03389	339.348	321.506	318.491	
711.343	437.796	0.398525	335.184	297.127	317.053	
711.509	435.706	-1.14113	333.392	313.648	313.721	
711.676	431.388	1.12015	333.29	306.138	313.026	
711.843	431.534	-0.142583	330.859	312.652	309.691	
712.009	426.828	1.15597	329.789	283.587	305.862	
712.176	426.361	2.06805	328.186	286.751	309.828	
712.342	422.018	1.00914	326.757	302.619	309.605	
712.509	419.625	1.32412	331.402	302.212	306.515	
712.675	418.252	0.179411	330.172	287.786	306.325	
712.842	415.883	-0.924009	327.302	299.807	308.521	
713.008	412.417	-0.0338102	325.829	303.627	309.149	
713.174	409.859	0.603086	325.386	307.71	303.386	
713.341	407.792	-1.7592	321.74	286.099	300.492	
713.507	408.148	0.35582	322.778	291.52	300.511	
713.673	406.63	-1.71988	320.382	302.952	304.838	
713.84	401.452	0.788275	320.414	280.962	303.181	
714.006	397.761	-1.37719	318.721	288.182	299.192	
714.172	396.222	0.527561	318.956	306.841	299.846	
714.339	394.651	0.529133	316.159	314.434	297.227	
714.505	394.337	2.20664	316.234	287.326	296.976	
714.671	390.218	-0.510788	315.235	297.575	295.952	
714.837	388.74	1.4119	310.451	291.067	293.899	
715.003	390.793	-3.19848	313.41	289.432	295.225	
715.169	385.901	-0.725173	310.273	281.065	292.023	
715.335	383.331	0.510411	307.251	288.941	289.994	
715.501	381.191	-0.232837	311.822	285.189	288.947	
715.667	379.072	0.503449	308.655	278.039	288.763	
715.833	378.058	1.92981	306.968	278.351	287.381	
715.999	376.001	2.39913	309.258	283.934	292.056	
716.165	371.285	2.59587	304.775	274.009	287.803	
716.331	369.935	0.504549	304.869	273.377	286.832	
716.497	369.895	2.80985	307.057	267.558	284.85	
716.663	366.401	-0.114895	301.209	278.059	285.506	
716.829	366.297	-1.25955	299.798	269.594	280.862	
716.995	363.679	2.51538	303.064	289.58	288.974	
717.161	361.384	3.80541	302.422	262.717	281.353	
717.326	359.761	-2.12915	297.001	278.54	281.152	
717.492	354.312	2.42625	298.93	268.074	281.788	
717.658	354.521	1.0054	297.487	269.883	278.967	
717.823	354.01	2.6322	295.416	274.617	276.799	
717.989	350.308	0.510105	296.953	250.999	276.683	
718.155	349.237	-0.310361	295.833	271.768	282.294	
718.32	344.445	-1.68088	291.072	272.14	274.309	
718.486	347.033	-1.35645	289.733	276.031	279.137	
718.651	345.167	1.5265	288.857	269.558	270.704	
718.817	338.956	0.11087	290.224	271.284	273.548	
718.983	337.464	2.6264	292.322	268.2	274.114	
719.148	339.6	3.33742	285.901	271.725	268.956	
719.314	336.814	-1.29031	286.463	283.627	272.993	
719.479	335.448	-2.46517	285.313	273.534	271.824	
719.644	333.257	2.81339	288.425	257.755	269.717	
719.81	330.478	1.48513	284.776	253.871	268.819	
719.975	328.158	0.087087	278.674	251.144	261.159	
720.141	326.91	-1.20128	275.592	253.617	264.262	
720.306	325.729	0.117671	280.175	267.085	264.633	
720.471	322.879	-1.61233	277.325	279.494	261.547	
720.636	317.845	0.297677	276.324	253.948	260.696	
720.802	318.904	2.31504	275.795	251.392	256.152	
720.967	319.975	1.49896	273.315	266.451	259.537	
721.132	314.018	-0.606417	268.41	252.542	254.766	
721.297	312.216	1.62063	270.911	250.067	256.641	
721.462	312.113	0.400539	271.006	273.214	258.733	
721.628	309.361	-1.17399	266.81	247.14	253.525	
721.793	308.687	0.420194	266.994	249.875	249.46	
721.958	304.939	-3.67924	270.672	256.686	251.154	
722.123	306.842	-1.49887	259.573	244.426	250.369	
722.288	302.567	-1.22169	271.84	256.238	254.545	
722.453	300.47	-1.15135	263.397	240.584	252.15	
722.618	298.561	5.39278	265.434	243.124	247.725	
722.783	299.803	0.210456	263.734	255.964	248.571	
722.948	296.151	0.195512	262.295	228.895	246.546	
723.112	293.767	1.35753	262.418	248.952	246.934	
723.277	295.054	-3.32725	260.272	258.735	247.04	
723.442	291.288	0.282015	260.156	246	248.433	
723.607	290.227	-1.7312	262.966	238.44	248.483	
723.772	288.649	4.25544	252.461	237.383	241.404	
723.937	288.49	-0.151165	255.99	232.475	242.889	
724.101	284.962	-0.305062	261.269	235.847	245.676	
724.266	283.808	-3.16154	256.974	236.52	239.24	
724.431	284.329	2.13627	253.173	233.691	244.002	
724.595	279.889	-0.5679	256.33	232.753	240.612	
724.76	280.248	0.62147	249.831	223.936	236.711	
724.925	276.078	-2.10243	248.631	225.637	235.252	
725.089	278.122	1.29783	251.382	237.293	239.281	
725.254	274.852	-2.84475	245.274	241.47	232.221	
725.418	271.35	2.55857	247.07	235.248	235.483	
725.583	275.729	-0.442981	245.234	229.11	230.055	
725.747	270.26	-0.837766	247.194	219.209	229.488	
725.912	270.742	2.60191	244.041	228.968	233.813	
726.076	269.693	2.96108	248.135	220.691	230.2	
726.241	267.054	-2.856	241.482	218.827	228.769	
726.405	261.797	6.83846	240.136	222.467	221.985	
726.57	262.101	-1.42287	242.284	221.731	229.879	
726.734	263.61	1.79801	240.016	224.054	226.011	
726.898	260.435	-0.994941	243.54	220.324	229.537	
727.062	253.348	3.71294	234.427	218.417	217.617	
727.227	255.511	1.07944	236.801	219.368	225.758	
727.391	256.87	1.38667	239.356	229.175	228.363	
727.555	256.8	-1.31461	228.085	218.883	221.011	
727.719	254.65	-1.58226	229.641	214.886	224.807	
727.884	255.189	-3.14885	233.801	219.156	220.162	
728.048	247.73	-0.151228	229.286	217.125	220.276	
728.212	246.975	-1.9378	232.321	229.154	221.808	
728.376	248.98	4.46208	231.736	227.414	227.159	
728.54	248.135	-2.90418	228.71	211.451	219.094	
728.704	242.598	2.40063	227.023	208.01	218.893	
728.868	247.789	-2.04084	228.677	221.874	215.007	
729.032	241.749	2.45695	221.074	208.048	210.047	
729.196	245.574	-0.21297	226.897	217.345	216.571	
729.36	236.143	6.95906	224.202	201.134	209.599	
729.524	237.092	-0.989502	229.442	201.179	212.497	
729.688	236.324	-1.34875	223.892	223.502	213.923	
729.852	239.054	-1.7018	222.042	233.518	210.566	
730.015	235.252	1.27716	221.184	217.843	212.407	
730.179	236.451	-2.15848	219.059	208.528	213.63	
730.343	226.603	6.91992	220.668	198.193	201.808	
730.507	234.912	-0.374158	222.755	213.566	206.148	
730.671	231.034	-0.695944	222.715	201.108	206.543	
730.834	229.124	-0.316908	217.682	194.245	209.166	
730.998	226.401	0.592982	216.432	193.569	204.045	
731.162	229.576	3.62927	213.333	215.912	208.706	
731.325	222.371	-0.019883	212.085	203.801	204.331	
731.489	225.172	3.15913	212.913	193.641	200.065	
731.652	225.676	-0.594876	214.975	198.847	196.666	
731.816	218.757	-0.876223	215.796	186.855	204.313	
731.98	215.808	1.68337	209.59	200.281	203.054	
732.143	219.595	-0.877344	212.829	214.889	205.518	
732.307	212.737	3.64941	205.471	201.571	194.827	
732.47	218.185	-7.69642	208.055	190.223	199.769	
732.633	214.248	3.53157	208.283	195.314	198.972	
732.797	213.595	1.55807	210.199	205.605	198.481	
732.96	212.212	0.913766	207.173	190.421	193.07	
733.124	214.466	-2.0336	198.609	192.694	193.026	
733.287	207.229	3.35011	205.254	185.313	195.882	
733.45	207.983	-0.397142	205.859	194.739	200.034	
733.614	208.948	2.25297	205.545	186.937	190.791	
733.777	206.451	-2.88728	198.061	180.804	188.835	
733.94	205.664	0.916809	201.824	179.037	186.345	
734.103	204.845	2.64534	201.683	194.721	191.671	
734.266	203.808	1.89766	198.675	212.258	192.749	
734.43	204.929	-0.976327	197.763	183.35	188.265	
734.593	197.84	0.42	196.947	191.68	193.48	
734.756	199.255	-0.299572	193.424	193.024	190.095	
734.919	198.174	4.72412	198.313	188.945	186.021	
735.082	197.527	-0.517817	198.988	194.341	191.884	
735.245	197.614	1.88943	193.252	173.629	182.38	
735.408	198.421	4.03432	191.857	171.419	187.729	
735.571	195.713	2.83324	196.531	190.346	192.075	
735.734	191.686	-1.7491	184.212	174.87	184.146	
735.897	190.463	-0.436568	190.278	189.153	184.457	
736.06	188.197	1.40416	187.155	192.231	178.783	
736.223	187.327	2.94521	186.24	175.368	179.058	
736.386	185.81	-0.514108	190.431	183.378	181.599	
736.549	188.52	-1.75763	193.806	152.4	182.418	
736.711	187.065	2.7208	186.053	185.133	183.161	
736.874	183.924	-1.21609	184.31	175.549	176.791	
737.037	185.903	1.92707	186.474	179.001	177.297	
737.2	181.81	-1.6473	187.981	172.946	179.483	
737.362	183.299	-2.46169	188.919	179.801	179.411	
737.525	182.497	0.913846	189.037	164.473	178.019	
737.688	180.496	1.45608	181.312	163.839	178.594	
737.85	175.899	0.994993	179.047	185.615	175.145	
738.013	181.148	2.47883	173.873	166.062	169.871	
738.176	178.892	-1.66232	180.181	181.792	175.22	
738.338	174.917	-2.11717	177.394	161.483	170.144	
738.501	169.994	8.72009	182.121	181.351	175.704	
738.663	170.312	-2.10403	179.78	171.555	170.79	
738.826	171.005	0.82223	179.291	196.819	167.372	
738.988	171.956	-1.12639	173.496	168.978	169.296	
739.151	171.214	-0.401732	176.494	170.755	167.694	
739.313	170.332	0.0190039	175.07	154.483	168.989	
739.475	168.916	2.02828	168.96	158.471	170.035	
739.638	170.788	-1.18799	169.079	165.433	163.924	
739.8	166.975	3.46922	174.938	150.93	163.374	
739.962	167.874	-2.97437	177.028	165.367	169.795	
740.125	166.989	6.2761	170.843	162.189	166.921	
740.287	169.074	-0.838106	172.6	159.873	163.971	
740.449	164.068	-0.832835	171.724	156.98	161.422	
740.611	159.499	5.13685	172.256	152.748	167.058	
740.774	160.267	-3.4256	170.93	156.749	159.757	
740.936	159.765	-2.00253	171.617	155.232	161.361	
741.098	160.453	0.348094	167.116	156.917	160.276	
741.26	158.774	0.308864	165.575	169.875	162.184	
741.422	158.575	3.59038	166.88	161.44	158.358	
741.584	158.588	6.71386	164.327	161.079	159.514	
741.746	152.96	-2.08696	163.659	166.957	158.321	
741.908	155.478	-0.591922	161.828	163.084	153.995	
742.07	153.876	0.839971	160.893	164.17	158.868	
742.232	150.292	-0.32068	156.646	147.976	155.28	
742.394	151.522	-0.972541	157.947	158.595	152.111	
742.556	152.24	0.404426	161.22	146.508	160.751	
742.718	150.601	-1.45584	158.997	154.67	151.63	
742.88	147.809	-0.57527	161.151	170.507	153.829	
743.042	149.823	5.28765	157.104	149.476	150.227	
743.203	146.148	1.43792	154.966	153.407	152.021	
743.365	145.627	0.364762	160.889	146.183	146.472	
743.527	144.774	1.96316	154.883	145.067	151.726	
743.689	142.998	0.822613	153.989	136.965	148.962	
743.85	137.618	0.425903	155.443	162.03	152.66	
744.012	143.537	2.96705	150.675	146.776	149.884	
744.174	141.602	-4.15832	153.311	151.17	146.606	
744.335	140.379	3.83606	147.624	137.54	145.539	
744.497	140.006	2.07713	151.223	134.025	147.985	
744.658	137.514	4.36183	148.724	159.823	147.226	
744.82	138.456	-1.29413	151.646	142.852	141.027	
744.982	137.331	2.46505	147.997	139.78	141.875	
745.143	134.524	0.76049	145.072	143.584	140.718	
745.305	135.068	1.36615	147.276	131.858	143.49	
745.466	133.088	-2.44093	149.366	140.738	142.267	
745.627	131.48	0.750941	145.383	162.415	144.567	
745.789	132.036	-2.49124	145.838	129.121	137.588	
745.95	129.715	1.74059	142.295	137.198	137.577	
746.112	130.361	2.36109	142.636	125.008	138.647	
746.273	128.606	1.0171	144.455	146.93	137.405	
746.434	132.429	3.54963	134.747	132.605	131.695	
746.596	131.247	4.36795	142.269	139.325	131.51	
746.757	130.115	-3.44634	142.731	132.253	136.455	
746.918	128.132	2.69734	142.252	128.259	135.761	
747.079	123.96	-2.723	138.535	141.121	132.308	
747.24	124.482	3.06855	140.658	132.327	131.958	
747.402	124.511	-1.34171	135.097	129.625	131.73	
747.563	121.259	0.22007	139.834	134.699	138.052	
747.724	122.905	2.20478	139.876	129.503	134.664	
747.885	123.362	1.04584	135.876	132.494	132.65	
748.046	120.194	-0.837805	135.657	113.367	130.796	
748.207	119.755	-0.202104	135.726	139.561	131.995	
748.368	120.362	2.30425	137.673	124.476	134.013	
748.529	119.471	3.86537	137.38	122.486	130.113	
748.69	119.651	2.06188	133.622	140.239	128.596	
748.851	117.849	-1.14937	128.98	138.124	126.017	
749.012	118.463	-1.89688	135.571	127.871	128.483	
749.173	117.981	-0.685405	129.719	121.545	124.439	
749.334	116.12	-1.37751	127.952	121.948	124.723	
749.494	115.581	0.407612	125.444	132.036	122.978	
749.655	116.072	-2.29861	129.633	129.383	127.13	
749.816	116.871	0.598956	129.32	121.783	124.328	
749.977	113.091	0.2384	125.319	119.706	123.332	
750.137	112.37	1.97767	129.788	115.463	122.254	
750.298	112.446	-1.94513	128.235	126.701	123.434	
750.459	111.158	2.14277	125.443	116.478	125.739	
750.62	111.221	-1.32792	124.126	115.175	119.503	
750.78	110.593	-0.191006	125.77	115.632	116.367	
750.941	110.441	1.20556	125.682	115.146	118.773	
751.101	105.721	2.35454	125.244	109.011	118.956	
751.262	109.169	-0.85891	126.633	127.847	119.549	
751.422	107.106	1.20934	120.73	120.73	117.039	
751.583	106.188	5.158	125.593	107.434	117.383	
751.743	106.454	0.217252	122.192	110.943	116.158	
751.904	103.209	-1.98646	123.136	112.436	118.866	
752.064	104.934	0.173112	122.149	110.272	117.004	
752.225	103.611	0.531706	120.295	121.732	116.558	
752.385	102.354	4.88423	121.137	119.8	119.084	
752.545	101.88	0.87162	117.469	99.8934	110.943	
752.706	102.447	4.87977	117.519	108.339	115.093	
752.866	102.206	-0.241823	118.564	116.004	111.499	
753.026	100.389	2.50298	115.312	117.114	111.994	
753.187	102.06	-2.33854	118.548	114.532	114.579	
753.347	99.5192	1.13203	112.995	99.222	105.778	
753.507	98.7513	2.05201	118.837	110.724	110.912	
753.667	98.6217	0.492405	114.412	108.596	106.955	
753.827	99.3616	-3.59833	116.252	114.331	112.457	
753.988	96.0566	3.04518	114.608	106.609	108.527	
754.148	96.8145	0.462088	112.381	113.548	108.087	
754.308	95.0728	0.209258	113.19	104.587	110.307	
754.468	96.7115	-1.40707	110.824	102.604	110.499	
754.628	95.2716	1.19541	110.784	119.124	107.216	
754.788	95.3456	1.26295	110.288	103.118	106.263	
754.948	92.2476	2.57474	110.22	104.775	109.343	
755.108	93.6628	0.124754	108.8	100.899	107.829	
755.268	92.7681	1.5242	111.959	112.513	107.063	
755.428	91.8124	-1.3693	109.613	91.0794	103.712	
755.587	91.9499	-0.661212	110.101	100.091	104.683	
755.747	89.8708	2.16274	112.224	106.484	107.862	
755.907	89.2146	3.42235	107.861	99.9352	103.6	
756.067	89.3399	1.30513	107.726	94.7665	105.803	
756.227	90.0107	0.602536	112.031	98.4736	104.179	
756.386	88.9297	0.575863	103.45	92.3437	99.5192	
756.546	85.9004	1.82039	105.842	93.5241	101.964	
756.706	87.9318	-0.368945	106.721	102.211	103.031	
756.866	86.5695	2.59313	102.165	88.5621	97.8883	
757.025	87.9821	-3.57662	105.984	109.169	101.251	
757.185	86.2823	1.86977	104.425	95.3718	98.5563	
757.344	84.4887	-1.65129	99.9644	101.602	97.5534	
757.504	84.7142	1.66213	103.216	104.169	97.6751	
757.664	86.3119	-0.517817	103.945	98.4942	99.9023	
757.823	84.0151	0.353691	99.9085	100.815	96.553	
757.983	82.9823	-1.37419	103.101	103.826	98.2027	
758.142	85.2204	-1.18532	102.814	93.504	101.134	
758.302	84.404	3.51231	99.9676	93.2323	96.2157	
758.461	80.9641	1.64126	98.3623	90.1334	96.2373	
758.62	83.1255	-1.3449	100.922	103.774	94.7632	
758.78	80.6571	-1.70918	100.801	100.394	95.3299	
758.939	80.7762	-2.9717	96.283	93.3113	92.681	
759.098	76.8567	4.8899	99.4956	83.8732	94.7999	
759.258	79.8942	-1.52526	96.1862	91.1919	96.4561	
759.417	80.3945	0.459475	95.314	99.5033	92.5211	
759.576	77.8172	-0.0946023	93.805	96.3728	92.1382	
759.735	77.149	2.03769	97.2065	89.8744	92.7533	
759.895	78.2602	-0.134769	97.366	87.7075	95.2546	
760.054	77.0727	1.59247	95.3771	85.3454	91.8232	
760.213	78.9206	-2.70978	96.087	86.3354	93.0312	
760.372	75.3705	3.68814	95.1442	93.568	89.9655	
760.531	75.7821	-2.53056	93.0921	87.3042	90.5347	
760.69	75.8403	3.44238	91.1308	83.076	87.4859	
760.849	74.7088	0.255714	93.7931	95.0044	91.9986	
761.008	74.7443	0.161668	91.8586	79.8234	87.4128	
761.167	73.1218	-0.659361	92.1894	67.4297	85.9995	
761.326	74.2676	3.11969	88.9696	73.1918	87.6249	
761.485	74.2432	1.2563	88.6613	93.2092	88.211	
761.644	72.2631	1.24382	92.2363	80.5642	86.5129	
761.803	73.2612	0.889648	89.6433	85.5545	84.7008	
761.962	71.17	1.60737	87.0996	77.5994	85.4337	
762.121	70.887	1.10845	87.2074	78.9166	85.9458	
762.28	68.1492	2.34347	85.2314	82.6275	82.8969	
762.439	69.1031	-0.539446	87.7859	85.9878	85.4483	
762.597	69.6349	0.283124	85.6561	91.9478	83.9484	
762.756	68.7861	-1.63423	87.5324	72.5407	83.2105	
762.915	68.4378	0.0947705	83.6417	92.1711	81.9719	
763.073	69.4961	1.70426	86.8453	89.5956	88.4233	
763.232	67.4875	2.25184	83.8925	79.7776	81.5864	
763.391	66.814	1.57273	83.1108	86.3647	83.0204	
763.549	67.739	1.94316	85.4947	79.1534	83.6376	
763.708	68.26	-1.81028	85.1605	84.2531	82.4383	
763.867	66.7363	2.5281	83.7625	80.138	82.1314	
764.025	68.0561	-2.07638	82.5908	82.4542	81.6345	
764.184	64.0449	3.45708	84.0723	91.2233	82.387	
764.342	66.3834	1.24734	81.2556	91.9471	82.6263	
764.501	65.9498	0.0548782	85.0108	81.1236	81.581	
764.659	66.746	0.865582	81.7769	86.3109	80.5862	
764.818	62.7785	3.26569	80.5216	79.603	80.5676	
764.976	66.9133	-0.206353	82.7657	74.0531	78.547	
765.134	64.2285	1.52004	81.4648	84.3206	75.9834	
765.293	63.2222	2.93896	81.9736	84.0433	79.9959	
765.451	64.56	3.18918	80.3626	84.014	79.3458	
765.609	63.3722	-0.207596	80.4412	91.3284	79.9337	
765.768	62.9726	-0.0556541	80.9721	74.7573	76.2878	
765.926	63.1171	1.57827	78.5214	78.4291	76.6755	
766.084	62.0446	0.347627	78.726	83.9173	75.6669	
766.242	61.9162	1.73883	78.0293	81.0433	75.1544	
766.4	62.2744	-3.05239	76.5607	74.0518	77.6292	
766.559	60.5689	0.670814	77.0551	72.4899	75.1918	
766.717	61.4617	1.92068	78.472	83.192	77.958	
766.875	61.076	0.182066	74.11	74.0166	76.4442	
767.033	60.7785	-0.0843365	75.781	75.453	71.6579	
767.191	60.8822	1.91224	74.6053	73.3399	71.6995	
767.349	58.1134	3.87517	76.1694	84.4364	74.0556	
767.507	58.0887	-0.735659	75.754	78.9135	72.6416	
767.665	59.4446	0.623495	76.364	76.7891	73.7661	
767.823	58.5547	1.41916	74.5108	71.909	72.4294	
767.981	58.149	3.50175	76.5118	72.3838	74.2343	
768.139	59.6776	1.46597	73.3552	76.7711	73.972	
768.297	58.3107	1.50804	72.0458	61.8007	68.6946	
768.454	56.5459	-2.15058	76.489	67.4565	72.6657	
768.612	54.9945	2.88005	70.7148	76.9549	69.2748	
768.77	57.7016	1.84323	74.8234	67.0473	70.8394	
768.928	57.9647	1.14195	71.8175	65.2645	69.5528	
769.086	56.1184	1.53274	70.771	69.566	67.879	
769.243	57.034	1.26258	70.516	62.5342	68.1457	
769.401	53.9429	0.0873334	69.6144	63.6951	68.9351	
769.559	56.4431	-0.320203	70.8426	65.1177	68.5138	
769.716	54.6386	-0.934991	70.7866	61.9724	67.4752	
769.874	55.1088	-1.53894	70.2344	76.3902	69.2085	
770.031	54.8084	-1.60986	70.6387	61.6137	69.0288	
770.189	54.1044	2.32233	68.7635	66.3628	67.0977	
770.347	53.4009	-1.50633	69.6062	51.6878	67.5879	
770.504	53.1994	0.857102	69.0164	55.5195	65.7653	
770.662	55.5499	-2.59996	69.7829	71.5657	67.2077	
770.819	51.2638	1.72716	70.1037	71.2452	65.091	
770.977	53.5599	-0.74596	68.2106	63.2872	67.4149	
771.134	54.1826	1.80459	68.1868	66.3971	65.8006	
771.291	51.891	0.330516	66.0331	75.5981	67.4353	
771.449	50.116	6.84899	66.9462	63.3494	60.6018	
771.606	50.0214	-1.63586	67.6057	72.1581	65.7047	
771.763	51.3605	-0.256576	67.0117	62.182	64.6471	
771.921	52.0961	0.740774	65.8936	67.9093	67.2038	
772.078	49.5084	3.58384	65.1745	53.8333	60.8396	
772.235	49.8197	-2.83946	66.9172	72.3836	63.5767	
772.393	50.7186	-2.92168	63.6024	62.5879	64.1096	
772.55	49.6749	-1.66193	64.2459	63.077	63.8902	
772.707	49.2441	-0.183404	63.1726	62.6632	63.9878	
772.864	51.1751	-3.04376	64.9386	67.347	65.861	
773.021	49.1851	3.0289	63.4378	56.2115	61.5928	
773.178	47.0287	1.03275	61.8571	68.0228	62.2681	
773.335	49.3295	1.32573	64.4932	67.3194	62.0268	
773.492	49.0689	-2.18325	64.7232	73.7039	63.2264	
773.649	47.5421	2.65157	66.8836	68.5376	61.9733	
773.806	48.1754	2.93242	61.9894	53.0938	60.0758	
773.963	46.6276	-0.719031	64.322	59.1637	63.0194	
774.12	46.5728	-0.672249	59.7937	69.8514	58.2824	
774.277	47.6974	-0.54969	60.691	55.1417	59.1728	
774.434	47.5262	-2.41338	58.8412	60.997	60.6289	
774.591	45.7975	-0.428459	58.9369	53.5415	58.884	
774.748	46.4472	3.3517	61.1407	59.0756	57.2754	
774.905	47.3145	1.76713	59.9445	61.961	56.389	
775.061	48.6326	-1.76031	62.1124	57.0981	56.7247	
775.218	46.2049	4.2415	59.6928	61.8969	56.6286	
775.375	47.1432	-1.86578	59.0724	58.4827	57.1959	
775.532	42.853	3.44962	58.7299	51.2261	56.7865	
775.688	45.0221	0.19427	57.2125	66.4403	57.5363	
775.845	44.4459	0.260967	58.1684	64.312	55.1238	
776.002	46.1946	-0.751398	60.8251	57.2859	57.3948	
776.158	43.3365	0.591849	56.8943	59.7439	56.5655	
776.315	44.2074	2.00197	57.9531	63.4229	59.3753	
776.471	42.2264	4.6332	55.4664	77.066	56.2909	
776.628	43.0322	1.32305	60.6784	68.2859	57.1502	
776.784	44.4409	1.9286	53.8234	67.7337	54.7655	
776.941	41.7717	-2.41503	56.8726	67.4211	53.7081	
777.097	40.7017	4.10536	58.6648	63.6918	56.8216	
777.254	42.1294	-1.27563	55.5739	73.03	57.5322	
777.41	44.285	0.761201	55.5451	57.9697	56.109	
777.567	43.6341	2.13262	57.1463	48.4579	50.7146	
777.723	42.7884	2.73262	53.7698	52.4119	52.3554	
777.879	39.9715	1.16057	52.021	63.7974	52.9882	
778.036	39.972	3.80034	52.7482	70.6657	53.2047	
778.192	39.7324	8.48104	53.9817	62.9482	56.0948	
778.348	42.1436	0.13795	57.0939	57.2663	51.9208	
778.505	39.927	-4.10303	55.707	55.1324	53.9256	
778.661	39.3521	-0.832848	54.6152	50.3353	54.673	
778.817	40.0191	5.98205	56.7226	45.741	54.2373	
778.973	41.2115	0.104377	52.7973	45.317	49.4921	
779.129	39.7805	0.419478	53.6699	61.2438	53.4369	
779.285	35.7815	1.76003	52.5663	52.625	52.449	
779.442	40.433	0.688597	56.6532	59.184	50.4147	
779.598	38.7979	4.43911	53.8435	55.0273	55.264	
779.754	39.9852	0.886589	52.1433	54.6848	48.4196	
779.91	38.1361	2.21389	47.0987	40.3142	47.4558	
