#Changer LED: 1
#Wavelength [nm]	White Std. spectrum	Dark specetrum	Sample spectrum0[s]	Sample spectrum1202.39[s]
380.024	24.359	-1.02585	4.07887	6.08282	
380.235	24.0726	-0.193432	4.75197	4.80871	
380.446	25.8356	1.81454	6.36209	5.85517	
380.656	23.6623	-1.25142	3.4804	4.49236	
380.867	23.9448	-2.52151	4.762	6.09719	
381.078	23.2686	-0.540008	4.34706	6.30781	
381.288	24.8582	-0.582091	4.56894	6.22997	
381.499	25.6991	0.238839	3.50807	5.45636	
381.709	24.5232	1.80808	4.07737	6.05738	
381.92	24.2125	0.408609	5.67618	5.28215	
382.13	24.7094	-1.71319	3.57259	6.57789	
382.34	24.3	0.312631	4.74695	5.68105	
382.551	24.6559	-1.73156	5.4883	5.45442	
382.761	23.3842	0.0374297	5.10291	5.40859	
382.972	24.0508	-1.43966	3.94385	4.72798	
383.182	24.168	0.963353	5.32245	5.51013	
383.392	23.3131	0.670344	1.56165	4.40752	
383.603	24.0415	1.50317	6.45656	6.09199	
383.813	23.2213	-1.9823	3.50298	4.53585	
384.023	23.1875	-1.70644	3.90505	3.41836	
384.233	22.1743	-1.55849	3.78959	3.99253	
384.443	24.4986	-0.925501	6.10347	5.95103	
384.654	22.8696	-0.18093	4.28503	5.40982	
384.864	23.3144	-1.23841	6.45289	5.76488	
385.074	22.0316	-0.296632	4.89952	7.75737	
385.284	23.0552	0.071268	5.22573	4.06762	
385.494	22.4729	-0.373806	4.19553	5.11224	
385.704	23.8658	-0.721318	6.13269	5.45293	
385.914	22.5033	-0.596644	2.9387	6.15345	
386.124	22.6759	-0.693344	4.81548	5.30971	
386.334	23.2634	0.0977828	5.56947	5.36679	
386.544	21.6136	0.885078	5.12873	3.97813	
386.754	22.9226	0.776739	3.41706	7.1919	
386.964	22.4129	-1.38198	5.08734	5.58816	
387.173	22.786	-2.52491	2.63674	5.0098	
387.383	22.5216	2.0658	5.39451	4.98428	
387.593	23.2688	0.123723	3.98035	2.82678	
387.803	23.0175	-0.91437	4.24244	5.26818	
388.013	22.2591	-0.482369	2.94216	4.57344	
388.222	23.4861	-1.36139	5.15336	4.49345	
388.432	22.7069	-2.04186	4.14826	4.12479	
388.642	23.542	1.71916	4.9271	5.48261	
388.851	21.7427	1.14343	3.4725	3.97092	
389.061	22.3699	0.36758	5.38242	4.59475	
389.271	23.2349	1.4632	4.218	4.72454	
389.48	22.538	-3.01965	4.91489	6.49036	
389.69	23.2237	0.0175075	4.58229	5.66192	
389.899	22.8647	-0.749376	5.98049	5.58779	
390.109	22.8668	-0.582982	3.38768	6.66629	
390.318	23.1861	0.541853	4.81958	6.63274	
390.528	23.7159	-1.289	4.38958	6.65985	
390.737	22.9443	0.174018	5.1869	3.76575	
390.947	22.5187	-0.232863	4.76765	5.42541	
391.156	22.9696	-0.754253	5.91825	5.1067	
391.365	22.9029	-1.53962	2.12705	4.35501	
391.575	24.1271	0.390828	5.34189	4.52202	
391.784	22.9584	-2.40846	4.25784	4.93995	
391.993	24.1792	0.147382	4.68153	4.03132	
392.202	23.6081	-0.0521535	3.62756	6.02083	
392.412	23.6562	1.00866	5.73875	4.75135	
392.621	22.8156	-1.69581	5.83267	4.49217	
392.83	23.5019	0.580186	5.02713	5.14778	
393.039	23.0136	-0.69292	5.28582	5.3632	
393.248	23.9109	1.02043	5.23589	4.80351	
393.457	23.9854	0.382653	6.27783	8.65897	
393.666	22.6484	-1.20119	4.78501	4.46586	
393.876	24.5296	-2.75633	5.8767	5.69179	
394.085	23.8252	-0.158132	6.93907	5.42686	
394.294	24.2637	1.46735	4.02008	6.59726	
394.503	24.955	1.66893e-08	4.83449	4.73542	
394.711	25.482	0.166377	4.93528	5.48053	
394.92	26.2543	-0.52243	3.62159	4.44508	
395.129	25.3377	0.59254	5.0811	7.17416	
395.338	23.9991	1.45422	4.94024	6.42795	
395.547	25.6211	-2.28219	2.44206	5.86356	
395.756	25.7831	-0.186641	5.57079	6.67523	
395.965	26.4282	-0.1766	4.47622	8.22073	
396.173	25.8691	-0.505845	7.70778	8.52009	
396.382	26.5047	-0.282435	4.94731	7.00673	
396.591	26.8665	-0.20387	6.15627	4.95315	
396.8	27.5299	-1.53938	4.60502	5.60622	
397.008	26.6898	3.14889	7.25524	5.66741	
397.217	27.4943	2.08682	5.78482	6.18019	
397.426	26.8685	1.85608	5.75147	6.46534	
397.634	27.5844	-1.68884	6.92575	7.68171	
397.843	27.3407	-1.43286	7.9434	7.34638	
398.051	28.6664	-2.0476	6.93562	6.57796	
398.26	28.4866	-1.44145	7.5712	6.54777	
398.468	28.8134	-0.686034	5.41666	7.70584	
398.677	29.107	-0.00907042	5.68171	6.0276	
398.885	28.5973	-0.600517	6.98783	6.58142	
399.094	31.1426	-2.02272	7.3559	6.77885	
399.302	30.8994	-0.599635	8.12839	7.79526	
399.51	30.8661	-0.264202	7.90177	7.56772	
399.719	30.4406	-1.50525	6.22897	9.61791	
399.927	30.2494	2.64111	7.09658	8.18227	
400.135	31.3447	0.877286	9.90603	9.14449	
400.344	32.6125	-0.941449	10.6728	9.02755	
400.552	31.8084	-1.89314	7.70974	10.1669	
400.76	31.9238	-1.20433	9.99347	8.35121	
400.968	33.0679	1.66529	9.49764	9.43969	
401.176	33.2181	-1.59403	10.0039	9.24048	
401.385	34.6712	-1.32577	7.68339	10.4873	
401.593	34.2643	0.797688	10.5573	9.2278	
401.801	35.5129	-1.68677	7.52699	8.69987	
402.009	36.3589	0.880822	9.61337	9.94633	
402.217	36.214	0.691697	9.76749	11.9105	
402.425	35.9042	-0.850125	8.76352	8.64293	
402.633	35.0378	-2.3577	8.76022	9.76156	
402.841	38.4554	-1.33293	10.8689	11.6548	
403.049	37.8901	-0.424413	10.9595	11.8625	
403.257	39.0434	-0.460716	13.2614	11.7287	
403.465	39.8921	-1.81898	10.804	11.5202	
403.673	39.1184	-0.402821	12.9738	13.0633	
403.88	41.5436	-0.00886168	10.1584	14.353	
404.088	41.848	2.00757	14.4142	13.3186	
404.296	41.277	0.212403	12.2545	12.992	
404.504	43.236	0.824043	14.5201	14.5201	
404.712	45.655	-0.885229	12.4137	15.2768	
404.919	45.6841	1.7101	16.1558	13.7419	
405.127	46.5112	-0.286785	15.327	14.0814	
405.335	47.5438	0.397278	16.5446	16.084	
405.542	49.2237	1.4259	16.284	16.8313	
405.75	48.5515	1.07415	17.447	16.5591	
405.958	50.3481	-0.502459	17.1858	19.4284	
406.165	51.3623	3.81505	16.2872	16.6286	
406.373	52.985	0.501382	18.4095	18.9194	
406.58	55.0068	3.322	20.3114	18.6251	
406.788	55.1124	-1.62021	16.8997	17.7998	
406.995	55.6759	-0.823708	20.5955	19.8951	
407.203	58.0449	0.956923	21.6651	22.7563	
407.41	58.3435	-0.646581	22.8095	21.9978	
407.617	61.1505	2.06894	21.8879	21.3318	
407.825	61.2032	1.46774	23.3115	19.8367	
408.032	63.7831	-2.96608	23.2081	23.6212	
408.239	64.9258	-2.327	24.6679	22.667	
408.447	67.4156	-1.12332	25.0738	25.2378	
408.654	68.1357	-1.43349	26.6738	26.6738	
408.861	69.1628	-0.0326394	26.68	28.5295	
409.068	72.1256	-1.2675	27.6656	28.7219	
409.276	74.3074	-2.41084	30.3054	29.1728	
409.483	76.0349	-0.404613	32.013	28.3175	
409.69	77.4523	0.152782	30.9852	30.2347	
409.897	79.5389	1.41413	36.4981	30.9493	
410.104	81.6531	-0.599979	31.3269	32.2335	
410.311	83.5303	0.767507	37.3626	33.1787	
410.518	87.465	-1.17349	34.9353	34.7238	
410.725	89.0097	1.58946	37.5144	35.1421	
410.932	92.0061	-0.292786	40.0985	37.2234	
411.139	93.2782	-0.885277	42.77	36.9208	
411.346	96.4893	-0.361236	41.9976	40.8982	
411.553	98.5011	0.290981	42.9446	39.2484	
411.76	100.912	-0.429311	43.873	41.115	
411.967	105.663	-0.701303	46.7847	42.6029	
412.174	107.443	-0.796963	47.3406	45.5868	
412.381	109.925	1.05273	51.5785	45.9278	
412.587	112.476	-0.743503	51.6185	49.7278	
412.794	115.21	-1.6928	54.8723	49.8965	
413.001	119.917	0.443627	54.5253	52.8681	
413.208	123.913	0.0840556	57.0152	53.3728	
413.414	125.694	-0.487511	58.1941	54.6393	
413.621	129.116	-0.531934	60.9546	55.6606	
413.828	132.198	0.302546	62.7557	57.2594	
414.034	136.927	-0.796526	63.6588	58.4245	
414.241	140.078	-0.743442	65.1548	62.0192	
414.447	143.989	0.475086	68.1258	62.0929	
414.654	146.688	0.241859	70.9126	65.2188	
414.86	151.912	-1.33947	75.449	68.0832	
415.067	154.76	-0.0973617	75.0359	67.5965	
415.273	162.326	0.588959	79.6127	72.8673	
415.48	164.434	-0.858783	80.2384	73.1321	
415.686	170.749	-1.45694	83.6947	76.3219	
415.893	175.421	-1.60295	87.9464	79.9442	
416.099	180.259	2.69505	89.0218	80.9668	
416.305	185.439	-0.54392	91.8695	83.6856	
416.512	190.85	-0.408365	95.5802	87.186	
416.718	196.329	-0.309489	98.7925	88.0988	
416.924	200.667	1.0689	102.627	92.0631	
417.131	207.045	-0.662858	104.842	95.4265	
417.337	212.07	2.14258	109.435	97.9276	
417.543	217.178	0.452156	111.1	100.148	
417.749	222.637	0.684134	113.371	103.873	
417.955	229.149	0.714094	118.484	106.533	
418.161	235.874	0.731333	123.276	109.378	
418.367	240.301	0.777086	124.713	111.988	
418.574	246.607	-0.685104	128.443	112.784	
418.78	255.406	1.71256	132.62	118.98	
418.986	258.882	1.90915	136.546	122.007	
419.192	266.27	-0.226819	138.448	125.418	
419.398	274.395	0.50741	145.977	128.761	
419.604	281.917	0.509041	147.86	133.678	
419.809	289.017	0.834412	153.506	136.034	
420.015	296.311	-0.818184	158.117	139.051	
420.221	304.995	1.28693	163.26	142.446	
420.427	312.795	-0.56515	169.996	149.146	
420.633	320.048	0.427474	175.72	153.532	
420.839	330.137	0.944684	176.562	158.1	
421.044	338.554	0.511469	186.124	161.441	
421.25	346.696	0.729517	186.815	163.992	
421.456	354.069	1.15759	191.751	167.127	
421.662	364.439	-2.03499	197.468	175.18	
421.867	370.326	0.0458249	202.661	178.501	
422.073	382.971	1.79187	208.204	186.176	
422.278	393.188	1.15219	216.54	189.374	
422.484	400.263	-0.606006	220.197	193.528	
422.69	410.738	-1.39111	224.759	196.682	
422.895	422.257	-0.980549	231.879	202.616	
423.101	431.238	-0.329675	239.707	209.627	
423.306	440.852	-0.545494	246.469	212.51	
423.512	453.706	0.789027	251.522	219.11	
423.717	464.319	-1.23113	256.687	224.447	
423.922	477.027	1.26672	264.515	232.126	
424.128	482.489	-0.707338	270.216	238.027	
424.333	501.494	-0.00775238	280.05	241.649	
424.539	507.574	0.50914	285.789	249.173	
424.744	520.38	3.7121	291.087	250.372	
424.949	536.276	-0.95186	300.698	257.206	
425.154	548.442	0.247884	309.692	268.998	
425.36	560.388	1.11471	316.179	275.952	
425.565	577.101	1.83916	327.079	280.75	
425.77	587.789	-0.783946	331.64	289.183	
425.975	604.067	0.506467	342.73	297.096	
426.18	620.526	-1.09184	353.253	305.758	
426.385	637.544	1.62919	359.745	314.559	
426.591	650.041	-0.485017	371.513	319.908	
426.796	666.348	-0.367014	377.667	327.587	
427.001	680.343	0.733734	389.743	334.635	
427.206	697.731	1.8474	400.299	342.92	
427.411	715.258	-0.156443	409.195	352.746	
427.616	732.517	-0.188014	418.743	362.13	
427.821	748.194	-0.117289	431.746	372.241	
428.026	762.99	1.77271	438.462	378.179	
428.23	781.906	0.858594	452.825	388.222	
428.435	799.12	-1.23781	464.208	398.84	
428.64	815.998	1.03835	472.376	406.613	
428.845	838.02	1.95969	484.044	416.604	
429.05	848.628	-1.61033	488.294	420.465	
429.254	873.861	0.324571	509.18	434.4	
429.459	886.366	-0.452493	511.895	442.615	
429.664	916.509	0.936976	536.033	457.642	
429.869	929.593	-0.79068	543.678	464.738	
430.073	944.219	0.358934	554.561	473.534	
430.278	965.547	2.5912	564.601	482.559	
430.483	987.693	0.0682412	577.473	493.334	
430.687	1007.27	-2.35792	585.317	501.48	
430.892	1029.62	1.14134	603.889	514.043	
431.096	1049.83	-0.594551	617.033	524.389	
431.301	1069.58	2.32469	628.279	535.566	
431.505	1090.02	-0.283791	644.716	550.442	
431.71	1122.1	-1.45854	661.402	560.651	
431.914	1142.09	-0.618662	677.644	570.782	
432.118	1171.22	-0.744638	691.523	584.419	
432.323	1192.21	-1.33488	707.095	597.066	
432.527	1215.63	2.21518	721.748	608.725	
432.732	1248.62	0.405491	740.072	626.707	
432.936	1271.37	2.02193	755.612	637.178	
433.14	1303.05	-0.153518	770.862	656.942	
433.344	1328.72	-2.21307	792.535	667.103	
433.549	1361.61	-1.54857	813.338	684.969	
433.753	1388.78	0.238307	826.304	696.246	
433.957	1422.08	1.83199	848.572	718.338	
434.161	1451.56	2.34714	864.521	724.796	
434.365	1479.2	1.80856	884.615	748.246	
434.57	1503.07	3.05994	898.665	757.001	
434.774	1532.21	1.47403	917.336	771.109	
434.978	1564.83	2.95897	936.669	788.626	
435.182	1596.88	2.52549	961.982	800.911	
435.386	1629.13	3.16038	978.6	818.95	
435.59	1661.16	3.47146	999.181	835.741	
435.794	1691.31	5.2008	1016.85	852.344	
435.998	1726.51	2.38084	1044.27	866.884	
436.201	1772.78	4.62084	1065.22	891.264	
436.405	1792.57	3.22909	1083.2	901.825	
436.609	1833.17	1.72429	1103.64	921.32	
436.813	1869.81	-0.432422	1135.23	944.098	
437.017	1902.59	0.587033	1151.35	957.762	
437.221	1945	1.07829	1176.65	979.941	
437.424	1978.39	1.90448	1193.94	996.692	
437.628	2015.91	-0.596848	1222.2	1017.69	
437.832	2056.41	0.744467	1241.26	1040.93	
438.036	2086.45	1.07058	1264.07	1050.13	
438.239	2132.3	0.593141	1290.84	1076.52	
438.443	2167.14	-0.524826	1309.16	1096.58	
438.646	2196.14	-0.901063	1324.89	1111.44	
438.85	2235.36	1.16524	1352.47	1132.85	
439.054	2261.08	0.687706	1363.42	1139.96	
439.257	2298.49	-0.825813	1381.7	1161.55	
439.461	2327.24	1.79126	1400.43	1177.46	
439.664	2359.96	0.657318	1421.65	1198.2	
439.868	2390.11	-1.15448	1437.29	1213.31	
440.071	2411.49	-0.632469	1447.01	1219.11	
440.274	2434.71	1.15145	1466.25	1237.52	
440.478	2459.95	0.99824	1474.17	1245.41	
440.681	2487.39	-0.252677	1489.39	1261.11	
440.885	2509.27	0.742169	1506.4	1272.64	
441.088	2523.5	-0.616733	1508.05	1277.89	
441.291	2543.81	-0.0256675	1521.56	1288.91	
441.494	2555.14	1.46832	1526.93	1294.57	
441.698	2564.85	-0.0317966	1533.37	1300.26	
441.901	2590.85	1.09096	1547.77	1312.29	
442.104	2598.66	-0.222595	1545.3	1314.39	
442.307	2606.29	1.61819	1549.32	1324.13	
442.51	2613.2	-0.89988	1549.24	1327.42	
442.713	2619.66	4.76837e-09	1554.58	1327.63	
442.916	2621.68	2.67559	1547.63	1330.68	
443.12	2623.09	1.08536	1545.69	1331.36	
443.323	2611.63	0.81756	1538.54	1325.45	
443.526	2606.09	-0.551899	1530.3	1322.36	
443.729	2602.12	2.15931	1528.42	1316.72	
443.932	2593.62	0.219396	1513.71	1312.96	
444.134	2585.65	-1.53464	1507.01	1313.96	
444.337	2568.96	-0.168701	1493.35	1302.78	
444.54	2550.01	0.287034	1481.56	1294.05	
444.743	2524.17	-0.1305	1464.06	1277.09	
444.946	2504.88	0.63882	1448.38	1271.31	
445.149	2493.02	-0.323554	1437.65	1265.73	
445.352	2467.82	0.285523	1421.18	1251.15	
445.554	2445.75	-0.229646	1407.05	1239.24	
445.757	2423.14	0.52665	1385.72	1227.37	
445.96	2394.26	-0.179782	1371.24	1215.08	
446.162	2373.26	-1.3167	1356.84	1200.41	
446.365	2337.14	1.46624	1333.54	1185.49	
446.568	2311.73	-0.0681375	1311.73	1171.41	
446.77	2286.34	0.229348	1300.58	1158.24	
446.973	2248.22	-0.346177	1277.59	1141.45	
447.175	2220.21	-0.797777	1262.03	1120.82	
447.378	2183.35	-0.0185305	1235.91	1105.62	
447.58	2153.37	1.20693	1216.25	1085.02	
447.783	2126.78	0.217342	1197.68	1074.06	
447.985	2087.39	0.086725	1180.16	1053.06	
448.188	2062.58	0.565112	1160.86	1043.3	
448.39	2021.64	-0.0805394	1136.91	1019.96	
448.593	1993.47	0.384745	1118.31	1003.38	
448.795	1961.57	-0.111667	1101.84	989.742	
448.997	1926.65	0.341047	1082.03	977.301	
449.2	1894.65	0.440412	1068.97	957.416	
449.402	1876.12	-0.249225	1058.3	947.711	
449.604	1840.37	-0.0558963	1033.31	929.346	
449.806	1825.76	-0.412373	1028.46	921.74	
450.009	1796.61	0.124616	1011.18	901.44	
450.211	1764.68	0.541525	993.714	893.978	
450.413	1743.5	0.361587	984.73	879.309	
450.615	1723.71	-0.467519	970.155	869.69	
450.817	1702.13	0.0311827	956.207	859.374	
451.019	1684.75	-0.0812492	949.935	847.477	
451.221	1665	1.16097	935.02	837.96	
451.423	1647.43	0.0187757	926.68	830.423	
451.625	1628.08	2.12255	919.249	820.614	
451.827	1607.08	-0.49896	903.901	809.889	
452.029	1596.11	1.51827	903.347	804.304	
452.231	1582.72	-0.377047	894.452	797.824	
452.433	1566.2	2.07191	887.412	788.651	
452.635	1548.74	0.276192	875.563	779.649	
452.837	1535.81	0.0565402	873.692	770.098	
453.039	1523.64	-0.126026	859.16	767.497	
453.24	1503.62	-0.446283	852.745	753.997	
453.442	1492.46	0.0819346	846.422	750.075	
453.644	1479.67	-0.541788	840.086	744.076	
453.846	1469.81	0.769893	835.309	737.242	
454.047	1454.89	1.02198	827.836	731.673	
454.249	1452.28	-1.51583	823.535	725.735	
454.451	1439.94	0.734872	814.728	720.884	
454.652	1431.75	0.887838	814.915	720.17	
454.854	1421.69	-0.120531	809.208	711.937	
455.056	1418.01	-0.694339	801.936	708.954	
455.257	1404.79	-0.050844	799.621	707.446	
455.459	1400.62	0.0510362	792.328	701.59	
455.66	1397.78	1.21047	793.844	698.116	
455.862	1380.57	-0.12764	782.469	690.186	
456.063	1370.76	-0.632994	780.311	686.492	
456.265	1362.58	0.281318	775.047	684.471	
456.466	1347.27	0.445949	761.681	676.398	
456.667	1344.32	-0.876715	762.123	671.658	
456.869	1330.59	0.0127667	754.472	665.787	
457.07	1319.67	-1.17356	744.624	658.499	
457.271	1312.8	1.1546	743.694	656.705	
457.473	1300.76	2.19061	735.917	652.04	
457.674	1293.24	-0.409386	731.49	646.159	
457.875	1283.78	-0.671051	723.998	642.641	
458.076	1275.12	1.90019	719.932	637.868	
458.277	1267.11	-0.870204	709.907	633.466	
458.479	1253.59	-0.830375	707.448	626.646	
458.68	1246.44	0.634683	701.363	625.265	
458.881	1237.97	0.783523	698.815	619.863	
459.082	1225.32	0.570132	684.818	609.078	
459.283	1217.17	0.62131	681.453	603.352	
459.484	1209.25	-0.289179	676.424	600.295	
459.685	1195.99	0.33325	671.608	597.396	
459.886	1186.12	1.74176	664.534	591.235	
460.087	1179.56	1.43022	656.616	587.563	
460.288	1165.82	-0.658372	652.5	582.231	
460.489	1161.55	0.308087	646.031	578.508	
460.69	1151.36	0.742047	639.792	570.854	
460.89	1138.58	-0.17916	636.168	567.021	
461.091	1127.75	0.805057	629.989	561.389	
461.292	1118.9	1.45091	623.408	558.49	
461.493	1109.65	-0.428594	616.401	552.325	
461.694	1100.58	0.876364	611.308	547.148	
461.894	1088.33	2.14328	601.176	542.215	
462.095	1078.76	0.782405	597.957	534.05	
462.296	1063.85	-1.37258	588.013	527.607	
462.496	1056.23	-0.0946518	583.133	524.449	
462.697	1046.01	0.138707	578.078	520.746	
462.898	1039.81	-0.0503061	575.08	514.629	
463.098	1027.72	0.0313116	570.719	512.312	
463.299	1021.73	-0.156405	566.005	505.466	
463.499	1011.56	0.192579	556.921	497.366	
463.7	1001.75	0.528074	555.13	497.084	
463.9	993.69	0.385057	549.909	492.027	
464.101	986.269	1.79908	545.444	486.917	
464.301	976.945	-1.10277	539.503	482.783	
464.501	970.495	2.33885	535.491	482.272	
464.702	963.297	-0.275939	531.929	474.104	
464.902	958.013	0.894206	531.273	472.761	
465.103	953.512	2.20267	529.896	472.846	
465.303	946.803	0.329011	523.956	469.791	
465.503	943.592	-1.30245	523.693	466.402	
465.703	937.062	1.60681	516.829	464.199	
465.904	935.523	-1.50902	518.775	461.646	
466.104	932.608	0.635477	515.017	459.135	
466.304	929.123	0.175117	514.301	459.692	
466.504	927.014	-0.271139	508.804	455.761	
466.704	917.65	-0.755287	506.598	453.508	
466.904	916.21	0.953056	507.291	451.886	
467.104	914.182	0.543033	504.583	450.26	
467.304	908.807	0.821442	504.445	446.626	
467.504	904.123	1.78386	498.68	442.714	
467.704	904.715	0.384801	499.731	444.595	
467.904	899.01	0.129147	498.907	443.178	
468.104	901.653	1.57365	499.872	444.109	
468.304	901.707	-0.327557	498.654	440.239	
468.504	898.504	0.582472	498.169	440.194	
468.704	898.833	0.116074	494.054	440.254	
468.904	898.094	-0.735269	498.991	438.336	
469.104	897.395	-0.0230201	494.21	437.657	
469.304	897.859	-0.815364	494.84	437.382	
469.503	897.189	0.429576	494.585	437.9	
469.703	898.173	-1.40147	496.257	438.101	
469.903	897.982	-0.44465	492.64	440.137	
470.103	897.733	0.442163	493.192	435.937	
470.302	897.273	-0.672907	492.119	435.516	
470.502	899.317	0.141189	495.957	439.463	
470.701	903.443	1.17324	496.691	439.872	
470.901	903.786	1.6198	498.482	440.851	
471.101	902.344	-0.223524	497.076	438.196	
471.3	908.543	0.301795	498.491	442.585	
471.5	907.841	0.734427	497.954	440.665	
471.699	908.545	0.638144	497.941	437.734	
471.899	908.956	-0.0995576	498.823	440.139	
472.098	911.906	0.624393	500.459	441.151	
472.298	914.058	0.606951	500.7	443.021	
472.497	916.073	1.46566	500.809	441.981	
472.696	918.856	-0.0329897	500.111	440.546	
472.896	920.283	0.274513	501.579	444.993	
473.095	922.292	-0.229659	502.465	443.319	
473.294	920.618	0.332806	504.085	445.58	
473.494	922.867	0.201404	501.92	444.329	
473.693	924.642	0.467326	506.992	445.552	
473.892	932.123	-0.418199	506.959	448.755	
474.091	931.422	1.87545	507.142	447.662	
474.29	935.212	-0.601165	505.45	451.146	
474.49	939.117	-0.827173	509.978	448.454	
474.689	936.157	0.359992	507.897	448.633	
474.888	937.851	0.359135	509.332	452.102	
475.087	943.09	0.82564	506.841	449.583	
475.286	945.42	-0.0695638	510.282	448.817	
475.485	944.657	0.143757	508.29	452.402	
475.684	947.561	0.074513	512.983	454.757	
475.883	948.753	-0.143301	512.035	453.07	
476.082	950.416	-0.0264591	510.505	450.99	
476.281	953.431	-0.386002	508.289	452.328	
476.48	954.552	0.189611	513.541	452.514	
476.678	955.12	0.194625	511.571	453.938	
476.877	955.975	1.72608	510.5	451.582	
477.076	964.145	-0.567555	511.661	456.29	
477.275	960.808	1.14232	513.892	456.514	
477.474	967.587	0.30916	515.712	460.57	
477.672	968.669	0.973174	515.43	457.702	
477.871	973.048	1.60944	518.343	461.567	
478.07	975.194	0.879997	523.377	461.777	
478.269	983.22	-0.646375	520.183	462.622	
478.467	978.269	0.574746	521.913	460.502	
478.666	985.885	0.816429	519.922	463.051	
478.864	984.909	0.51127	521.737	462.785	
479.063	990.999	0.0785136	521.611	463.755	
479.262	993.739	-0.403218	525.292	465.298	
479.46	997.013	1.69066	526.664	470.483	
479.659	1000.62	0.199115	528.87	471.126	
479.857	1002.67	-0.371576	529.195	467.022	
480.055	1003.8	0.15659	528.254	468.367	
480.254	1012.3	0.825973	530.934	470.676	
480.452	1014.25	1.73695	531.594	472.824	
480.651	1016.31	1.82352	530.516	471.868	
480.849	1021.67	0.146309	533.5	475.272	
481.047	1018.62	0.947146	531.63	473.847	
481.246	1026	0.515499	535.532	478.046	
481.444	1029.9	-0.759074	532.187	478.792	
481.642	1037.22	-0.140896	538.485	480.456	
481.84	1040.96	0.171953	541.076	479.763	
482.039	1044.18	1.36473	538.012	481.044	
482.237	1043.19	0.0260392	539.149	481.428	
482.435	1049.66	-0.934534	542.037	485.129	
482.633	1053.66	3.07551	545.892	484.799	
482.831	1059.39	0.716724	549.554	487.578	
483.029	1065.67	0.875761	546.835	487.63	
483.227	1067.27	-0.577185	547.224	491.605	
483.425	1069.86	-0.666186	550.196	490.747	
483.623	1074.6	0.0157226	551.099	490.777	
483.821	1081.66	1.73183	553.799	495.37	
484.019	1086.26	0.452345	554.713	494.628	
484.217	1087.38	0.178597	554.928	496.534	
484.415	1094.46	0.0951448	558.618	497.39	
484.613	1098.37	0.777712	558.999	498.669	
484.811	1098.65	0.126061	557.934	500.208	
485.008	1103.47	1.59347	559.853	501.566	
485.206	1107.6	1.00625	560.298	502.68	
485.404	1112.45	-0.401037	561.455	504.958	
485.602	1116.38	1.8142	562.634	505.36	
485.799	1124.78	0.0477148	567.286	508.049	
485.997	1129.67	2.9603	568.751	508.502	
486.195	1132.15	0.57775	565.411	509.279	
486.392	1140.13	0.585686	571.868	513.689	
486.59	1142.23	0.60139	573.656	513.446	
486.788	1149.84	1.14091	575.803	515.594	
486.985	1149.2	1.16087	571.525	514.99	
487.183	1155.5	0.961355	573.931	519.133	
487.38	1160.51	1.21691	577.054	516.813	
487.578	1164.22	0.67926	575.705	518.209	
487.775	1167.37	1.30527	576.74	522.139	
487.973	1169.72	1.06413	576.797	521.238	
488.17	1180.1	-0.257727	579.96	524.62	
488.367	1183.3	1.28192	584.543	525.221	
488.565	1191.32	0.716096	585.11	527.319	
488.762	1191.68	0.333624	582.112	525.306	
488.959	1197.74	-0.24759	585.09	531.589	
489.157	1202.96	2.91743	585.042	529.624	
489.354	1206.32	-0.0808227	584.332	531.959	
489.551	1207.82	-0.107665	583.743	532.512	
489.749	1215.29	-0.129528	587.698	536.39	
489.946	1221.14	0.524595	588.931	533.696	
490.143	1223.79	1.19394	588.976	533.709	
490.34	1227.49	1.13008	591.358	536.782	
490.537	1236.42	0.635818	592.571	538.826	
490.734	1240.2	1.84211	596.082	538.373	
490.931	1242.61	0.962239	593.017	540.719	
491.128	1250.28	1.08615	595.187	544.463	
491.325	1252.34	-1.05843	591.471	544.66	
491.522	1258.39	0.947587	594.831	546.721	
491.719	1261.83	-0.329308	599.157	548.151	
491.916	1272.96	-0.788182	600.418	549.545	
492.113	1272.62	-0.978139	599.835	550.434	
492.31	1283.07	0.922785	602.645	550.612	
492.507	1285.03	0.88975	602.013	554.062	
492.704	1287.57	1.0326	603.13	553.359	
492.901	1291.25	0.0386992	602.674	553.028	
493.097	1301.24	-0.0554452	605.523	556.712	
493.294	1305.82	-0.849113	605.586	557.673	
493.491	1308.49	-0.238585	603.832	556.171	
493.688	1308.9	0.42618	604.896	559.087	
493.884	1315.44	0.97384	607.272	559.687	
494.081	1317.27	0.220742	602.947	557.676	
494.278	1322.73	0.775312	605.958	559.402	
494.474	1325.28	1.15317	606.264	562.639	
494.671	1326.07	0.0879635	608.739	557.188	
494.867	1335.09	-0.0495981	609.594	564.257	
495.064	1337.55	1.00266	609.391	560.819	
495.26	1340.32	-0.0825444	605.337	563.184	
495.457	1348.83	0.999287	611.298	565.861	
495.653	1352.99	0.56273	608.083	567.037	
495.85	1354.15	0.766074	607.759	564.734	
496.046	1362.8	-0.524309	610.288	566.485	
496.243	1371.02	0.646247	609.785	570.439	
496.439	1372.4	0.221221	613.209	572.947	
496.635	1375.9	0.56272	611.259	571.685	
496.832	1379.95	0.308549	613.529	571.728	
497.028	1387.76	0.446548	614.197	574.577	
497.224	1392.09	1.47813	613.813	575.131	
497.42	1397.44	0.335693	614.453	573.363	
497.617	1404.34	1.32866	615.28	576.634	
497.813	1405.51	-0.0219934	615.265	575.566	
498.009	1407	-0.992803	612.497	576.149	
498.205	1417.03	-0.203194	617.197	582.489	
498.401	1422.93	-1.13052	612.392	582.501	
498.597	1426.28	0.334198	619.268	582.049	
498.793	1434.4	2.71261	620.26	583.818	
498.989	1435.43	-0.322922	617.519	582.289	
499.185	1440.08	0.0054648	617.44	585.417	
499.381	1450.86	0.73383	621.557	587.714	
499.577	1456.22	0.650425	621.561	586.143	
499.773	1459.54	-0.240398	623.229	586.823	
499.969	1466.16	-1.07523	621.442	586.73	
500.165	1466.69	0.866133	623.275	586.142	
500.361	1473.91	0.325992	620.082	590.761	
500.557	1478.28	0.719886	622.159	588.077	
500.753	1478.58	-0.578386	619.237	591.76	
500.948	1487.95	-0.118884	622.674	593.169	
501.144	1490.71	-1.39224	623.61	595.676	
501.34	1494.62	1.0761	621.138	594.702	
501.536	1501.8	-0.0591015	622.351	596.06	
501.731	1505.29	0.841473	622.177	595.307	
501.927	1507.27	2.10791	620.379	591.953	
502.123	1511.34	1.30293	624.963	596.768	
502.318	1516.8	-0.825338	622.995	596.3	
502.514	1518.56	0.0424826	622.66	593.807	
502.709	1527.05	0.122218	621.949	599.454	
502.905	1529.34	0.148131	622.36	596.049	
503.1	1533.58	0.796338	618.777	598.069	
503.296	1542.01	1.01247	623.326	602.356	
503.491	1540.38	-0.487519	623.46	597.109	
503.687	1547.91	1.21117	621.994	598.26	
503.882	1548	-0.386641	621.134	600.06	
504.078	1559.27	-0.934752	621.415	598.56	
504.273	1558.64	-0.187209	619.056	598.741	
504.468	1564.94	-0.088364	621.554	599.584	
504.664	1576.84	0.644051	621.93	602.73	
504.859	1575.25	1.66614	620.975	602.865	
505.054	1577.03	0.70207	619.424	602.767	
505.249	1580.39	0.889666	620.56	603.727	
505.445	1586.81	1.2397	617.763	602.122	
505.64	1591.46	1.16596	619.51	603.095	
505.835	1593.54	-0.514878	621.396	603.146	
506.03	1602.14	-0.413061	622.165	608.856	
506.225	1607.24	0.452125	620.038	602.055	
506.42	1613.28	-0.471744	622.973	604.83	
506.615	1614.82	-0.51043	619.623	604.596	
506.81	1617.69	0.211409	619.562	604.797	
507.005	1623.29	0.723177	618.45	608.071	
507.2	1626.17	-0.205231	618.877	604.945	
507.395	1633.45	0.960372	617.476	602.987	
507.59	1633.53	1.83625	617.099	605.802	
507.785	1639.56	0.288324	619.084	606.872	
507.98	1641.95	0.525374	614.911	606.749	
508.175	1643.76	-0.395696	617.456	606.904	
508.37	1649.14	0.969079	617.542	607.06	
508.564	1653.09	0.571831	615.816	604.215	
508.759	1662.4	1.08605	619.986	608.566	
508.954	1661.08	-0.00981657	612.913	607.727	
509.149	1666.68	0.884488	613.14	604.508	
509.343	1669.28	-0.739381	615.165	605.845	
509.538	1674.1	-0.0685087	615.029	606.27	
509.733	1677.84	0.380624	611.53	609.237	
509.927	1684.51	0.0925463	610.366	604.066	
510.122	1688.43	-0.238187	611.565	608.6	
510.317	1691.2	-0.402343	608.555	608.798	
510.511	1695.45	-0.043563	610.406	604.629	
510.706	1698.32	0.761702	609.159	606.251	
510.9	1703.83	-0.0289152	610.585	608.721	
511.095	1704.74	0.158344	608.397	604.591	
511.289	1704.55	-0.215085	607.291	605.028	
511.484	1707.57	0.257433	607.598	602.497	
511.678	1711.56	0.418785	603.872	605.538	
511.872	1712.87	-0.503063	601.263	605.345	
512.067	1713.89	2.08616e-09	598.415	604.81	
512.261	1722.7	0.853852	603.554	604.993	
512.455	1722.92	-0.581325	601.831	604.398	
512.65	1727.92	-0.193518	597.792	604.652	
512.844	1732.78	-0.594407	598.523	603.287	
513.038	1733.32	0.381047	598.547	604.506	
513.232	1736.31	0.103278	593.158	601.639	
513.427	1744.33	0.197509	596.727	606.602	
513.621	1747.35	0.562205	595.575	604.679	
513.815	1747.3	-0.173206	597.052	602.622	
514.009	1754.97	-0.591063	595.4	605.313	
514.203	1756.12	0.252414	595.459	602.611	
514.397	1764.02	0.668983	593.54	602.242	
514.591	1765.31	0.948639	590.278	602.132	
514.785	1774.55	-0.425562	591.908	604.612	
514.979	1773.54	1.15325	591.082	602.817	
515.173	1776.7	-0.433051	587.465	601.543	
515.367	1781.94	0.00932125	592.211	603.195	
515.561	1783.99	0.12571	588.802	601.978	
515.755	1788.85	-0.89904	588.899	603.93	
515.949	1789.23	0.40869	588.665	598.696	
516.142	1793.33	0.362081	588.092	601.662	
516.336	1800.91	-0.367525	585.609	602.202	
516.53	1797.35	-0.00462934	583.156	600.609	
516.724	1800.45	0.171431	580.144	598.832	
516.917	1806.94	-0.662382	583.497	597.393	
517.111	1812.86	-0.533473	584.081	600.394	
517.305	1820.35	0.835718	583.211	599.879	
517.499	1818.27	-0.398166	578.434	599.716	
517.692	1817.84	0.707016	578.29	598.946	
517.886	1828.27	-0.399203	577.975	599.034	
518.079	1828.11	-0.046324	577.665	597.013	
518.273	1833.06	1.39419	574.294	598.194	
518.466	1834.58	0.147978	575.947	597.357	
518.66	1837.38	0.282001	574.469	598.401	
518.853	1843.44	-0.0463052	574.513	598.962	
519.047	1845.4	1.52114	574.076	594.913	
519.24	1847.47	0.968205	570.415	596.62	
519.434	1852.54	0.435635	570.913	594.1	
519.627	1857.8	0.73742	570.627	594.388	
519.82	1855.25	-0.926144	570.532	595.369	
520.014	1862.09	0.937353	569.007	591.234	
520.207	1865.14	-0.162323	567.175	594.832	
520.4	1866.42	0.236759	566.296	592.726	
520.594	1867.65	-0.236659	564.128	589.712	
520.787	1876.59	-0.297752	565.666	593.379	
520.98	1875.43	0.473723	560.141	590.005	
521.173	1878.85	-0.642591	562.047	595.17	
521.366	1882.73	-0.493701	559.832	588.104	
521.56	1886.62	0.228324	558.943	592.244	
521.753	1888.32	0.214621	558.347	589.949	
521.946	1889.84	0.569511	558.579	588.44	
522.139	1894.19	0.630736	553.196	588.611	
522.332	1898.28	1.13209	550.693	587.822	
522.525	1899.63	0.285526	555.151	587.9	
522.718	1907.98	0.793631	551.96	587.196	
522.911	1904.37	0.17797	549.261	587.43	
523.104	1912.86	0.981368	552.242	584.626	
523.297	1917.85	-0.50857	548.943	585.014	
523.489	1915.44	-0.4607	547.648	583.815	
523.682	1918.72	-0.630762	546.413	583.082	
523.875	1921.84	0.40475	548.25	583.595	
524.068	1921.07	-0.484819	544.441	582.002	
524.261	1925.02	0.136785	542.505	579.547	
524.453	1927.89	-0.278507	542.124	581.115	
524.646	1933.6	0.132716	539.81	580.194	
524.839	1940.58	-0.389674	541.095	582.566	
525.031	1941.08	0.72903	541.691	581.637	
525.224	1945.61	-0.100239	539.374	578.802	
525.417	1943.27	0.24335	535.921	577.211	
525.609	1951.52	-0.0957948	535.981	577.652	
525.802	1951.96	0.0720315	536.415	575.953	
525.995	1955.11	-1.07033	533.759	575.132	
526.187	1952.71	0.697073	533.227	574.987	
526.38	1961.96	0.0289285	531.886	573.158	
526.572	1962.38	1.18613	529.759	573.524	
526.765	1971.24	0.096614	528.049	572.958	
526.957	1967.33	3.57628e-09	526.929	570.843	
527.149	1971.07	0.343505	523.418	574.508	
527.342	1973.21	0.237541	523.478	572.02	
527.534	1972.8	-1.09754	522.941	568.639	
527.726	1979.19	-0.0633017	522.969	571.338	
527.919	1977.53	-0.856508	520.354	568.5	
528.111	1982.1	2.12255	517.723	566.419	
528.303	1981.98	-0.249092	515.302	565.999	
528.495	1989.57	-0.230417	516.23	566.055	
528.688	1991.71	-0.990814	515.179	567.025	
528.88	1992.13	1.64043	513.814	563.109	
529.072	1999.47	-0.571293	513.194	565.02	
529.264	2000.64	2.00623	512.512	562.701	
529.456	1996.58	0.231782	510.506	562.288	
529.648	1999.8	-0.340918	507.049	562.106	
529.84	2001.86	-0.178233	510.831	561.099	
530.032	2006.32	-0.0198455	507.657	560.28	
530.224	2007.98	-0.382043	503.207	560.282	
530.416	2010.95	-0.367595	503.739	557.239	
530.608	2014.74	-1.45008	502.931	558.808	
530.8	2017.35	1.50214	502.542	558.003	
530.992	2019.83	-0.199979	499.408	555.386	
531.184	2022.95	1.32096	500.782	555.088	
531.376	2023.06	0.0800378	496.206	554.083	
531.568	2028.74	1.03452	497.051	553.062	
531.759	2029.92	-0.00502738	493.652	554.249	
531.951	2035.43	1.59937	495.903	553.386	
532.143	2030.06	-0.0855008	490.545	549.49	
532.335	2036.76	0.706583	490.416	547.581	
532.526	2038.56	-1.0877	491.881	548.677	
532.718	2038.15	0.567435	488.982	546.367	
532.91	2043.46	2.51944	486.979	548.52	
533.101	2049.35	-0.0356273	488.176	547.165	
533.293	2050.61	0.325967	484.294	546.33	
533.484	2056.25	0.889046	485.327	547.884	
533.676	2056.83	-0.255313	482.235	544.31	
533.868	2057.71	0.459913	478.754	542.716	
534.059	2061.81	-0.174177	478.55	546.104	
534.251	2064.7	1.93065	482.193	544.118	
534.442	2065.85	0.66274	478.195	543.716	
534.633	2068.9	-0.453072	475.468	541.489	
534.825	2081.15	-0.698671	477.313	541.09	
535.016	2073.44	-0.319486	470.797	537.992	
535.208	2081.71	-0.470723	471.226	535.817	
535.399	2078.84	-0.19129	470.125	538.266	
535.59	2085.12	-1.26018	472.832	537.276	
535.781	2087.79	0.742699	471.378	539.745	
535.973	2087.12	0.487589	467.1	534.515	
536.164	2088.25	1.89838	467.877	533.94	
536.355	2093.93	0.737312	465.318	533.373	
536.546	2094.35	2.49914	463.294	531.427	
536.737	2097.35	-0.909598	464.888	531.314	
536.929	2103.5	0.899666	462.988	534.84	
537.12	2102.8	1.65211	457.387	529.775	
537.311	2101.7	0.873358	461.031	526.81	
537.502	2105.01	-0.473771	458.409	526.299	
537.693	2109.7	1.98165	457.771	526.677	
537.884	2108.81	0.839528	454.508	526.155	
538.075	2111.54	0.917291	452.228	524.308	
538.266	2109.95	0.104291	451.48	520.92	
538.457	2114.03	0.104494	451.43	524.61	
538.648	2119.44	2.10639	446.618	525.351	
538.838	2122.75	-0.0784641	449.195	521.992	
539.029	2122.6	0.454239	445.87	517.713	
539.22	2129.56	0.894751	445.077	519.744	
539.411	2127.26	1.32999	444.028	519.169	
539.602	2135.76	1.864	446.065	518.06	
539.792	2133.64	0.32856	440.98	514.671	
539.983	2133.7	3.24212	442.755	514.141	
540.174	2145.19	0.675496	439.372	517.883	
540.365	2142.68	1.48885	441.189	515.388	
540.555	2143.57	1.83196	435.942	512.926	
540.746	2140.73	2.06736	436.533	511.225	
540.936	2149.01	2.00263	432.926	512.423	
541.127	2149.51	1.98948	431.531	512.447	
541.317	2150.79	2.01852	430.183	508.739	
541.508	2144.84	2.74908	431.609	509.084	
541.698	2154.33	2.81488	429.712	510.8	
541.889	2156.38	3.45844	426.914	506.226	
542.079	2163.03	1.46849	427.715	507.073	
542.27	2161.11	1.96306	425.749	504.324	
542.46	2162.17	1.85791	425.783	505.999	
542.651	2162.34	1.86354	425.786	504.193	
542.841	2172.93	2.42051	422.079	504.49	
543.031	2174.48	2.35783	422.341	502.939	
543.222	2170.16	2.22821	416.858	499.866	
543.412	2172.68	2.59175	419.26	500.207	
543.602	2173.82	4.224	415.384	500.79	
543.792	2180.61	1.34845	416.428	499.84	
543.982	2171.32	2.24967	414.049	495.136	
544.173	2178.57	1.73891	412.47	497.877	
544.363	2181.96	2.5911	411.515	496.209	
544.553	2186.02	2.30737	411.062	494.657	
544.743	2186.35	1.0759	409	497.002	
544.933	2190.33	2.5455	409.765	494.666	
545.123	2194.96	3.19472	406.49	492.707	
545.313	2197.86	3.48157	408.001	490.364	
545.503	2198.16	1.63437	404.607	492.181	
545.693	2200.61	2.06139	403.855	490.205	
545.883	2203.26	2.09369	403.329	487.772	
546.073	2203.78	2.92398	402.103	488.787	
546.263	2209.93	1.70638	401.666	488.071	
546.453	2208.32	2.4434	399.897	485.17	
546.643	2210.7	1.64239	396.513	485.73	
546.832	2213.69	3.22074	398.655	486.516	
547.022	2219.36	1.51214	395.998	485.614	
547.212	2222.77	0.408881	396.445	483.185	
547.402	2217.61	0.875213	394.03	481.988	
547.591	2223.16	1.51457	392.66	481.337	
547.781	2225.86	0.60742	391.943	481.5	
547.971	2229.95	1.36896	389.775	479.017	
548.16	2232.29	-0.456345	389.147	480.048	
548.35	2233.96	1.5217	389.067	479.451	
548.54	2233.52	0.399136	386.567	477.819	
548.729	2238.37	0.743954	384.759	475.665	
548.919	2242.83	2.06745	383.099	478.484	
549.108	2244.07	-0.363023	384.788	477.798	
549.298	2245.92	0.858765	382.624	476.227	
549.487	2250.68	1.08066	381.13	476.67	
549.677	2248.53	-0.539469	381.634	475.043	
549.866	2256.4	0.0742563	377.968	473.643	
550.055	2255.88	0.617225	377.587	471.01	
550.245	2259.17	1.44174	379.857	472.796	
550.434	2265.69	0.370545	376.983	469.734	
550.623	2266.78	1.13815	376.986	470.715	
550.813	2266.05	0.856418	374.189	467.46	
551.002	2269.53	-0.0786848	374.127	467.712	
551.191	2271.45	0.328811	371.271	467.853	
551.381	2271.9	1.53773	371.854	465.799	
551.57	2278.56	-0.548706	371.422	465.877	
551.759	2276.76	0.844614	370.904	465.211	
551.948	2283	0.874444	367.657	465.409	
552.137	2284.3	0.628571	366.163	465.565	
552.326	2291.31	1.13494	367.204	464.916	
552.515	2292.89	1.08925	367.539	464.956	
552.704	2292.5	0.0774534	365.33	461.937	
552.893	2291.65	-0.362483	365.701	460.64	
553.082	2298.11	1.09137	365.534	462.357	
553.271	2294.83	1.41848	363.103	459.063	
553.46	2297.92	1.1634	362.604	460.965	
553.649	2302.4	2.05162	360.517	458.47	
553.838	2297.88	-0.612365	355.298	456.226	
554.027	2306.46	0.253759	356.349	455.889	
554.216	2301.24	0.124084	356.382	456.874	
554.405	2301.24	0.924464	354.713	457.167	
554.593	2307.79	-0.337899	354.665	456.336	
554.782	2303.08	0.350723	352.763	452.782	
554.971	2303.82	0.198724	348.874	453.977	
555.16	2306.66	0.756429	349.735	450.608	
555.348	2312.43	0.59049	350.531	450.615	
555.537	2312.68	1.31637	349.875	450.215	
555.726	2315.61	0.174333	346.498	449.92	
555.914	2315.96	1.72439	347.934	447.125	
556.103	2318.63	0.188311	347.134	450.109	
556.291	2326.3	-0.0705921	347.404	449.904	
556.48	2322.91	2.24436	344.81	446.605	
556.668	2336.04	0.390643	347.394	449.824	
556.857	2332.11	0.196936	343.571	443.79	
557.045	2336.33	-0.328901	343.977	447.346	
557.234	2335.87	0.454482	343.306	444.885	
557.422	2343.12	-0.0516014	341.784	443.033	
557.611	2342.37	0.0748838	341.918	444.681	
557.799	2348.68	-0.651031	340.722	443.732	
557.987	2342.34	-1.3557	340.232	442.564	
558.176	2349.72	0.607732	337.625	442.248	
558.364	2349.84	-0.0699816	334.425	441.248	
558.552	2355.28	0.872748	336.73	441.491	
558.74	2354.4	-0.0839412	336.774	439.166	
558.929	2362.23	1.11959	339.093	440.167	
559.117	2359.9	-0.116468	332.052	439.885	
559.305	2364.23	1.45772	333.643	439.875	
559.493	2365.94	0.54475	332.856	437.848	
559.681	2369.75	1.13561	331.566	437.928	
559.869	2373.07	0.0698076	331.575	437.59	
560.057	2378.65	0.079151	330.946	435.875	
560.245	2375.31	-0.548835	331.381	435.055	
560.433	2377.65	-0.199841	329.912	437.594	
560.621	2379.86	-0.255593	330.385	436.51	
560.809	2382.68	1.61813	328.442	436.317	
560.997	2383.44	0.0464798	325.783	435.971	
561.185	2388.3	-0.423319	327.28	433.529	
561.373	2390.92	-0.195266	326.146	432.457	
561.561	2393.78	1.02249	325.689	431.811	
561.749	2399.42	0.167484	324.279	432.57	
561.937	2398.13	0.855563	324.635	430.837	
562.124	2398	-0.798445	322.258	430.264	
562.312	2406.4	0.972556	323.534	430.081	
562.5	2406.97	0.884119	323.25	429.825	
562.688	2406.22	0.325377	323.401	428.297	
562.875	2409.95	-0.176833	320.538	428.608	
563.063	2412.68	0.0558787	318.605	425.023	
563.251	2415.2	-1.30848	319.026	427.197	
563.438	2414.41	2.02881	319.153	427.015	
563.626	2416.68	0.921603	318.494	427.272	
563.813	2422.88	0.223956	319.41	427.003	
564.001	2420.62	-0.195819	316.105	427.427	
564.188	2422.46	-0.22853	317.103	424.466	
564.376	2432.95	1.37967	316.97	425.457	
564.563	2431.01	0.794886	315.626	424.665	
564.751	2433.96	-0.158959	314.369	425.968	
564.938	2433.23	0.191509	315.621	421.247	
565.126	2438.71	0.490894	314.277	422.928	
565.313	2442.92	1.5027	313.845	422.28	
565.5	2440.14	1.32686	311.961	422.128	
565.688	2448.37	0.665801	312.512	422.198	
565.875	2445.11	0.505745	313.126	420.035	
566.062	2456.58	1.02913	311.229	420.518	
566.249	2450.9	-1.05201	310.64	419.363	
566.437	2454.57	0.83225	309.995	418.548	
566.624	2450.97	-0.225591	309.853	420.361	
566.811	2455.86	-0.509276	307.598	417.768	
566.998	2457.39	-0.522752	307.273	418.401	
567.185	2464.33	0.0755443	306.853	417.966	
567.372	2463.06	0.826553	308.062	416.852	
567.559	2464.82	0.0661545	307.302	413.795	
567.746	2467.57	-0.378858	306.398	415.793	
567.933	2464.96	0.988867	304.897	414.351	
568.12	2469.41	0.0047391	304.287	415.229	
568.307	2470.92	1.78901	303.632	416.034	
568.494	2475.69	0.209186	305.028	413.392	
568.681	2475.76	1.09975	303.913	413.38	
568.868	2475.36	-1.15283	300.145	414.635	
569.055	2484.94	0.703063	303.875	411.646	
569.242	2482.04	0.511471	302.458	412.974	
569.429	2484.86	-0.0622489	299.046	410.535	
569.615	2489.93	-0.595205	299.375	411.328	
569.802	2490.01	1.6132	301.384	412.196	
569.989	2494.8	0.611284	300.741	408.124	
570.176	2496.7	0.549035	300.671	408.84	
570.362	2501.2	-0.289963	298.594	410.923	
570.549	2498.7	-0.459388	301.228	409.708	
570.736	2507.95	-0.72189	299.379	407.97	
570.922	2505.18	0.426994	299.014	410.226	
571.109	2510.18	0.291715	296.716	406.563	
571.295	2507.25	-0.515166	295.892	406.28	
571.482	2508.67	0.656953	297.457	407.825	
571.668	2519.66	0.942284	297.257	405.693	
571.855	2522.59	0.0881104	294.478	409.054	
572.041	2523.54	0.352901	295.376	405.233	
572.228	2525.66	-0.024529	295.923	404.047	
572.414	2525.1	-0.668119	295.589	406.434	
572.601	2525.01	-0.90002	292.515	405.107	
572.787	2524.7	-0.315259	291.017	405.298	
572.973	2530.55	0.577201	292.049	405.055	
573.16	2531.89	0.286853	292.273	402.695	
573.346	2536.4	0.143553	292.117	403.989	
573.532	2539.43	0.765469	291.425	404.357	
573.718	2541.94	-0.795478	292.252	404.149	
573.905	2533.63	-0.109317	290.779	401.239	
574.091	2537.16	0.668255	289.095	399.706	
574.277	2545.78	2.94252	290.228	399.789	
574.463	2546.86	0.110267	287.196	400.754	
574.649	2546	1.02894	289.166	397.949	
574.835	2546.41	-0.699053	287.287	398.65	
575.021	2550.68	-0.442959	289.708	399.24	
575.207	2547.65	0.161395	288.935	397.372	
575.393	2552.46	1.16236	287.682	398.393	
575.579	2556.15	0.0810486	285.126	400.688	
575.765	2557.59	0.87375	288.358	395.409	
575.951	2565.93	-1.5112	287.179	398.766	
576.137	2565.65	0.976132	288.167	398.012	
576.323	2564.87	0.409672	285.024	396.421	
576.509	2574.24	-0.225848	286.051	397.127	
576.695	2575.5	1.13684	285.857	396.986	
576.88	2584.28	0.263647	286.184	396.226	
577.066	2586.12	1.10714	283.544	399.069	
577.252	2587.02	0.828186	285.884	395.74	
577.438	2586.07	-1.12493	284.039	396.256	
577.623	2592.94	0.0468597	285.307	394.212	
577.809	2599.84	0.125095	284.92	396.446	
577.995	2599.37	0.559539	286.249	395.943	
578.18	2600.27	-0.376019	286.067	396.835	
578.366	2605.09	1.803	283.681	392.56	
578.552	2604.84	-0.593404	285.795	395.618	
578.737	2609.67	0.505165	284.517	393.794	
578.923	2610.81	0.194994	282.512	395.415	
579.108	2614.56	0.824769	283.504	392.222	
579.294	2607.02	0.370383	279.637	391.81	
579.479	2610.01	0.785273	279.798	393.362	
579.665	2614.64	-0.340817	282.477	392.301	
579.85	2616.38	0.0320149	280.346	391.313	
580.035	2620.36	0.583028	279.49	393.332	
580.221	2622.06	0.590209	279.729	391.761	
580.406	2622.5	0.499269	280.471	389.88	
580.591	2626.4	-0.618679	280.075	391.975	
580.777	2628.94	-0.889588	279.816	391.221	
580.962	2632.17	-0.140571	281.702	390.59	
581.147	2641.04	0.634451	279.11	391.485	
581.332	2638.93	0.982653	278.46	389.574	
581.517	2643	-0.233998	277.988	389.926	
581.703	2640.84	-0.609137	277.233	388.655	
581.888	2647.05	0.813764	276.845	388.952	
582.073	2653.62	0.0821181	277.519	388.78	
582.258	2658.02	0.647487	277.059	388.924	
582.443	2661.52	1.5373	278.424	390.829	
582.628	2656.99	0.946489	276.545	386.455	
582.813	2657.84	0.347313	278.197	389.54	
582.998	2667.2	-0.276495	277.081	387.569	
583.183	2668.61	1.18426	278.522	385.88	
583.368	2681.72	-0.367194	277.519	387.844	
583.553	2676.89	-1.70173	276.744	384.483	
583.738	2678.45	0.383933	275.599	388.942	
583.923	2682.03	1.91723	277.993	387.862	
584.107	2690.71	1.25861	274.421	387.137	
584.292	2694.01	0.0280065	276.85	388.148	
584.477	2690.75	0.779017	274.442	386.475	
584.662	2697.69	2.03817	275.627	387.867	
584.846	2698.4	0.399618	275.978	388.228	
585.031	2704.64	0.146429	273.893	385.442	
585.216	2707.15	0.197245	276.187	387.377	
585.4	2712.63	1.8432	278	386.01	
585.585	2712.13	1.14271	274.133	383.595	
585.77	2718.03	1.01517	279.434	387.624	
585.954	2712.91	2.2769	272.471	384.674	
586.139	2721.04	0.437135	275.567	388.257	
586.323	2724.6	-0.108084	273.966	384.875	
586.508	2731.95	-0.0854487	275.09	386.648	
586.692	2730.95	1.23187	275.504	385.137	
586.877	2733.98	-0.673785	276.061	385.294	
587.061	2738.17	0.818569	274.929	386.494	
587.246	2736.68	0.54912	274.997	384.687	
587.43	2737.87	1.00108	272.6	383.977	
587.614	2743.67	0.80243	275.589	384.203	
587.799	2756.74	0.368275	275.384	384.638	
587.983	2755	0.304819	274.322	384.67	
588.167	2759.86	-1.19209e-09	273.348	386.618	
588.351	2761.95	0.334191	273.326	383.283	
588.536	2763.02	1.96894	274.664	384.932	
588.72	2763.43	-0.0460349	273.541	383.987	
588.904	2767.79	1.55201	272.273	383.03	
589.088	2772.01	-0.311231	272.921	382.832	
589.272	2776.03	-0.594885	274.991	386.151	
589.456	2779.15	1.13174	276.827	380.935	
589.641	2778.99	-0.092328	271.929	385.05	
589.825	2784.47	-0.560332	272.008	381.32	
590.009	2782.74	-0.582859	270.612	383.24	
590.193	2790.08	1.86095	272.763	383.476	
590.377	2793.74	0.681297	273.167	384.311	
590.561	2795.3	1.41486	272.264	383.913	
590.745	2804.39	-1.11753	272.576	383.094	
590.928	2802.69	1.35148	271.91	381.915	
591.112	2807.81	0.543792	271.711	382.937	
591.296	2808.63	0.549174	271.733	383.013	
591.48	2816.28	-0.208241	269.911	384.115	
591.664	2819.98	-0.162232	270.908	379.198	
591.848	2820.23	-0.428649	270.814	384.638	
592.031	2822.92	-0.249237	272.515	380.228	
592.215	2822.31	0.770174	271.877	378.582	
592.399	2827.57	1.22888	273.417	381.62	
592.582	2833.27	-0.608639	269.888	379.597	
592.766	2837.05	1.02509	270.688	382	
592.95	2834.62	0.155861	267.909	379.09	
593.133	2841.17	1.42231	269.076	382.283	
593.317	2848.94	-0.318072	271.629	382.299	
593.5	2848.55	-0.340778	271.579	379.954	
593.684	2850.41	-0.623864	270.946	378.389	
593.867	2858.71	0.0866421	271.078	380.536	
594.051	2854.03	0.138394	269.411	378.8	
594.234	2863.54	-0.161699	269.733	380.246	
594.418	2866.34	-1.11349	270.773	381.68	
594.601	2871.44	0.83754	272.05	382.375	
594.785	2874.18	0.351716	269.144	382.538	
594.968	2882.65	1.05061	269.531	381.924	
595.151	2884.05	-0.392326	267.322	382.943	
595.334	2883.4	0.593529	268.16	382.429	
595.518	2891.51	-0.996909	268.895	383.203	
595.701	2887.4	0.189527	269.266	380.302	
595.884	2898.51	-0.879909	271.704	381.05	
596.067	2894.72	-1.27001	268.8	381.109	
596.251	2896.63	-0.114638	267.724	379.801	
596.434	2905.54	1.06188	270.752	378.738	
596.617	2908.99	-0.677407	266.629	382.018	
596.8	2913.47	1.2234	268.951	381.297	
596.983	2917.71	-0.292855	269.825	379.196	
597.166	2911.91	2.93034	267.039	378.224	
597.349	2924.08	-1.16933	267.683	380.528	
597.532	2921.19	0.359963	267.414	379.708	
597.715	2927.26	-0.0458174	266.745	379.094	
597.898	2926.56	0.971502	267.773	379.61	
598.081	2928.91	1.29698	265.58	379.013	
598.264	2928.29	0.0342152	263.269	378.346	
598.447	2942.36	0.217246	267.514	379.433	
598.63	2940.22	1.08454	266.95	378.258	
598.812	2948.06	-0.49745	268.669	380.109	
598.995	2946.94	1.57466	266.705	377.539	
599.178	2950.11	-0.951492	265.421	381.423	
599.361	2951.83	-0.335784	268.144	377.112	
599.543	2953.22	-0.330411	263.831	379.437	
599.726	2953.02	0.324052	266.376	378.392	
599.909	2962.3	0.153613	264.122	375.691	
600.091	2963.26	1.96635	267.192	377.33	
600.274	2957.13	0.186927	262.132	375.648	
600.457	2965.48	0.0113434	263.525	377.602	
600.639	2971.48	0.561065	261.998	376.044	
600.822	2973.75	1.32471	263.67	375.95	
601.004	2982.47	1.03122	265.057	379.077	
601.187	2983.56	-0.311421	262.186	376.751	
601.369	2978.77	0.446148	263.355	377.358	
601.552	2988.6	0.661247	263.971	378.305	
601.734	2989.42	0.598851	265.613	377.662	
601.917	2990.43	0.0620778	263.4	376.626	
602.099	2995.6	0.321326	263.664	375.489	
602.281	3003.15	0.683011	263.941	377.024	
602.464	2995.79	0.782186	261.517	375.675	
602.646	3007.1	-0.366491	264.868	376.976	
602.828	3008.11	-1.69648	263.4	377.72	
603.01	3011.14	1.26008	262.029	376.562	
603.193	3014.38	-0.326001	261.743	376.667	
603.375	3013.93	1.05081	263.55	377.509	
603.557	3021.04	-2.06385	259.834	376.617	
603.739	3017.57	0.325708	263.653	375.405	
603.921	3021.7	-0.640452	259.939	374.846	
604.103	3030.47	0.697765	264.065	376.382	
604.285	3027.19	0.720269	260.034	374.846	
604.467	3038.95	0.850997	263.088	375.314	
604.65	3035.09	-0.0450249	259.119	372.9	
604.832	3035.05	0.65215	260.256	371.665	
605.013	3034.33	0.32575	260.239	375.318	
605.195	3044.65	-0.191233	262.272	375.943	
605.377	3042.82	-0.0842658	261.642	374.408	
605.559	3045.72	0.151471	261.539	374.525	
605.741	3051.49	0.0336739	260.78	377.217	
605.923	3051.61	0.571084	260.349	376.059	
606.105	3056.87	0.633186	260.785	374.366	
606.287	3056.1	1.28073	258.775	374.134	
606.468	3061.51	0.413904	258.03	375.247	
606.65	3065.43	1.18444	259.816	373.903	
606.832	3060.18	-0.290383	256.214	374.601	
607.013	3066.35	0.452801	259.63	372.719	
607.195	3064.58	0.251364	258.029	377.325	
607.377	3066.05	0.848391	258.77	374.475	
607.558	3070.31	-0.888578	258.697	373.635	
607.74	3070.42	0.737336	258.777	374.852	
607.922	3071.47	-1.11028	259.513	370.652	
608.103	3068.5	0.841287	257.956	371.817	
608.285	3079.68	-0.106125	257.817	372.655	
608.466	3078.87	0.70247	257.623	370.65	
608.648	3074.81	-0.373839	256.941	370.859	
608.829	3077.35	1.58828	257.237	371.909	
609.01	3082.34	0.474009	256.376	371.532	
609.192	3087.35	-0.446174	256.552	371.609	
609.373	3089.26	-0.0111612	256.468	372.377	
609.555	3083.05	-0.206228	258.068	372.887	
609.736	3094.09	1.40818	254.76	371.94	
609.917	3089.67	1.88997	255.61	373.462	
610.099	3094.93	1.87811	257.097	373.38	
610.28	3091.13	3.79063	258.341	370.55	
610.461	3098.31	4.75439	254.328	371.379	
610.642	3098.45	2.56988	252.983	370.764	
610.823	3100.97	1.02525	255.534	372.905	
611.004	3102.21	2.55756	255.7	372.902	
611.186	3103.55	2.50794	254.785	370.906	
611.367	3102.17	1.62642	254.963	369.242	
611.548	3108.91	1.32628	253.269	373.253	
611.729	3104.79	2.09071	256.583	372.958	
611.91	3107.23	2.46736	254.253	370.502	
612.091	3112.42	3.70649	254.779	372.704	
612.272	3114.64	0.816037	256.065	369.991	
612.453	3107.95	2.21871	254.149	370.196	
612.634	3113.23	2.27328	254.28	368.863	
612.815	3106.79	0.961324	253.45	370.309	
612.995	3107.02	1.40007	251.85	368.972	
613.176	3108.99	0.258723	251.828	369.716	
613.357	3099.43	1.19725	250.252	368.909	
613.538	3099.78	2.28425	251.962	369.55	
613.719	3108.15	0.93552	250.597	369.998	
613.899	3100.16	2.49682	252.554	367.87	
614.08	3104.59	0.0564768	253.442	366.433	
614.261	3099.65	1.60327	252.293	366.216	
614.441	3102.45	2.10932	251.945	367.552	
614.622	3098.34	0.407007	251.093	364.358	
614.803	3103.11	1.01937	250.112	367.15	
614.983	3105.05	0.986166	251.775	365.788	
615.164	3100.79	-0.056732	249.995	367.393	
615.344	3096.55	-0.0339751	252.246	365.082	
615.525	3106.63	0.392159	249.587	366.799	
615.705	3105.04	1.08644	250.218	367.015	
615.886	3101.27	-0.375203	249.874	365.96	
616.066	3096.6	2.35953	249.659	368.11	
616.247	3099.5	-0.814374	252.741	367.417	
616.427	3098.22	0.0171115	251.772	365.678	
616.607	3101.56	1.42855	251.676	365.408	
616.788	3097.08	0.0514624	250.818	366.075	
616.968	3095.13	-0.715195	250.496	364.908	
617.148	3094.99	1.11704	251.811	362.388	
617.329	3090.74	0.17757	248.933	364.258	
617.509	3088.41	0.326762	248.001	362.023	
617.689	3087.52	-0.39027	248.227	363.548	
617.869	3086.94	0.671596	249.189	363.973	
618.049	3088.12	0.833095	248.45	364.987	
618.23	3085.04	1.03375	248.729	361.293	
618.41	3089.32	-0.47231	249.612	362.083	
618.59	3089.32	0.357693	250.587	363.703	
618.77	3077.04	0.943285	247.94	363.531	
618.95	3081.22	2.24115	249.242	361.761	
619.13	3072.93	0.789627	249.023	363.413	
619.31	3078.74	0.0578222	248.824	362.349	
619.49	3077.19	1.23794	248.294	363.007	
619.67	3068.34	-0.208243	249.997	362.082	
619.85	3066.94	0.144558	246.09	361.158	
620.03	3066.99	0.347611	248.351	362.174	
620.209	3064.08	-0.405055	247.898	362.875	
620.389	3065	0.92833	248.798	361.629	
620.569	3064.76	-0.40032	248.133	360.764	
620.749	3055.14	-0.0464437	248.303	359.13	
620.929	3052.68	0.0116194	250.052	360.689	
621.108	3054.51	1.40274	248.736	358.996	
621.288	3048.22	0.00581941	246.707	361.466	
621.468	3051.05	0.256299	249.699	359.811	
621.647	3049.14	1.76459	248.264	361.012	
621.827	3042.79	-0.081641	249.273	359.294	
622.007	3040.33	0.606457	246.943	360.245	
622.186	3037.44	0.836115	249.182	359.67	
622.366	3033	0.531611	248.545	357.028	
622.545	3027.35	0.187026	249.212	359.09	
622.725	3024.19	-0.269214	247.365	360.981	
622.904	3028.71	-0.504849	247.783	360.983	
623.084	3019.61	0.686175	246.323	360.079	
623.263	3015.98	1.51452	251.418	361.191	
623.443	3011.03	0.721924	247.362	360.033	
623.622	3011.88	-0.176485	251.124	358.309	
623.802	3010.49	-1.3239	249.828	359.054	
623.981	3002.17	0.806387	249.131	359.533	
624.16	3005.16	-1.0315	248.509	359.262	
624.339	2998.25	1.5141	248.918	358.597	
624.519	2993.21	0.79038	248.48	359.487	
624.698	2989.57	0.560593	252.458	361.036	
624.877	2994.15	-0.153661	250.486	356.551	
625.056	2981.21	0.561195	252.78	357.202	
625.235	2986.42	0.159817	250.54	360.341	
625.415	2977.12	-0.769392	249.806	355.883	
625.594	2977.34	-0.0770955	248.5	357.798	
625.773	2970.33	0.581359	249.016	354.412	
625.952	2964.5	0.344152	250.426	358.28	
626.131	2969.72	0.778997	252.304	355.674	
626.31	2960.42	-1.59939	250.575	356.507	
626.489	2955.51	1.55971	251.732	358.729	
626.668	2955.47	-0.0655574	251.581	360.784	
626.847	2950.82	0.0716393	252.899	358.348	
627.026	2940.13	-0.220853	252.017	356.455	
627.205	2940.04	0.645894	253.545	357.925	
627.383	2934.84	1.05193	252.272	361.071	
627.562	2929.13	1.10144	252.887	358.282	
627.741	2930.61	2.96777	254.975	359.656	
627.92	2922.52	-0.126079	253.434	353.916	
628.099	2922.24	-1.50041	254.063	355.43	
628.277	2915.76	1.3109	256.498	358.484	
628.456	2918.79	1.04248	255.153	357.975	
628.635	2909.51	1.81575	255.554	361.08	
628.813	2912.41	-0.580412	253.789	360.077	
628.992	2901.98	0.163311	256.39	359.014	
629.171	2896.75	1.08325	255.278	362.211	
629.349	2894.41	0.715807	260.414	358.12	
629.528	2889.17	-0.297373	256.01	362.639	
629.706	2881.11	3.747	258.12	360.166	
629.885	2876.93	0.382503	259.145	357.321	
630.063	2868.38	1.18446	256.092	359.069	
630.242	2865.94	-0.00607899	258.758	361.047	
630.42	2861.37	-0.846816	259.538	360.323	
630.599	2860.56	-0.888871	259.865	360.32	
630.777	2856.3	0.566707	260.657	357.261	
630.955	2853.22	0.158593	260.64	359.944	
631.134	2835.04	1.94819	260.834	360.13	
631.312	2836.7	-0.048897	256.707	357.761	
631.49	2833.33	2.46898	260.552	357.861	
631.669	2827.8	0.747328	261.479	362.123	
631.847	2820.78	2.45124	264.687	359.48	
632.025	2812.5	-0.909519	262.943	361.208	
632.203	2814.94	-0.425867	263.367	361.933	
632.381	2808.99	1.91429	262.632	360.199	
632.56	2810.48	0.396993	264.811	361.351	
632.738	2802.11	0.173555	262.723	360.224	
632.916	2792.01	0.142531	265.319	361.91	
633.094	2791.96	-1.01933	267.625	362.886	
633.272	2786.9	1.06391	266.507	360.392	
633.45	2781.04	1.57947	265.323	359.158	
633.628	2773.63	1.126	269.118	358.326	
633.806	2767.8	0.398616	270.719	363.646	
633.984	2764.6	0.0373668	270.953	359.512	
634.162	2760.06	-0.442365	270.91	362.436	
634.339	2747.84	-0.580694	270.237	361.795	
634.517	2748.33	-0.731229	268.328	361.846	
634.695	2729.15	0.0125036	269.263	360.602	
634.873	2732.39	-0.21278	271.316	361.622	
635.051	2719.64	1.6561	271.553	361.802	
635.229	2707.39	1.26499	272.1	360.774	
635.406	2715.51	0.327518	273.874	363.081	
635.584	2704.43	0.0818906	272.843	363.867	
635.762	2702.76	0.700696	275.605	363.245	
635.939	2697.46	0.170487	274.095	362.012	
636.117	2687.58	0.695504	277.308	363.34	
636.295	2686.55	-1.40719	275.325	364.869	
636.472	2678.52	-0.532891	276.577	361.353	
636.65	2675.98	-0.793103	274.515	364.908	
636.827	2672.74	1.85235	281.371	365.671	
637.005	2664.83	0.165414	280.069	364.367	
637.182	2654.99	0.859793	283.161	364.194	
637.36	2653.44	1.20303	280.572	366.142	
637.537	2635.63	5.07085	279.404	364.533	
637.715	2641	-1.37035	281.043	365.303	
637.892	2630.86	0.523991	284.195	366.074	
638.069	2623.88	0.530104	284.027	367.056	
638.247	2623.21	-0.435143	286.571	367.052	
638.424	2615.83	1.01779	285.64	366.167	
638.601	2612.15	1.88592	288.259	366.047	
638.778	2600.38	-0.532513	287.527	364.474	
638.956	2598.63	0.264023	291.14	365.517	
639.133	2592.11	1.39754	288.655	366.732	
639.31	2579.9	0.470145	288.218	365.846	
639.487	2573.49	1.92212	291.903	369.669	
639.664	2568.22	1.48057	290.071	369.078	
639.841	2571.48	0.62824	291.849	368.77	
640.019	2561	2.04249	296.668	367.863	
640.196	2555.88	-0.492968	294.341	370.275	
640.373	2548.31	1.15029	296.835	370.64	
640.55	2545.75	-0.175733	297.414	371.765	
640.727	2531.2	-0.253648	297.644	369.945	
640.904	2526.94	-0.540533	297.354	370.879	
641.081	2527.43	0.405048	302.164	370.216	
641.257	2519.78	2.41325	302.657	372.918	
641.434	2510.37	0.740471	299.565	369.309	
641.611	2504.3	-1.28614	303.307	371.158	
641.788	2493.64	0.0722632	303.663	371.371	
641.965	2493.21	2.24561	308.106	372.028	
642.142	2483.6	-0.144911	304.64	373.165	
642.318	2478	0.521342	308.335	372.436	
642.495	2469.38	1.41823	307.493	372.754	
642.672	2466.57	0.694739	309.287	375.518	
642.848	2457.41	0.449594	309.616	371.656	
643.025	2454.31	0.0132337	309.679	373.399	
643.202	2445.69	0.185627	313.409	372.567	
643.378	2443.11	-0.0199046	313.068	372.671	
643.555	2434.59	0.312213	313.636	374.418	
643.731	2427.2	4.10766	316.006	373.744	
643.908	2426.42	2.06757	318.034	378.416	
644.084	2416.43	-0.133376	318.514	375.043	
644.261	2408.26	1.42613	318.251	375.252	
644.437	2400.58	0.856197	317.375	374.945	
644.614	2398.43	-0.630616	316.855	375.042	
644.79	2380.28	1.44171	321.211	377.27	
644.967	2382.04	1.02254	322.851	379.966	
645.143	2381.13	1.25296	322.984	378.671	
645.319	2375.41	1.38495	327.272	379.224	
645.496	2371.48	-0.507652	327.607	383.968	
645.672	2361.35	0.513228	325.062	375.35	
645.848	2352.77	0.121787	324.473	380.044	
646.024	2345.42	1.16509	330.496	377.596	
646.201	2346.79	0.869228	332.665	380.133	
646.377	2334.08	-0.869386	331.904	379.313	
646.553	2331.44	0.224566	334.117	379.643	
646.729	2331.87	2.5986	337.634	381.354	
646.905	2319.03	-0.0886761	338.561	380.898	
647.081	2309.03	3.45114	339.69	382.227	
647.257	2303.88	-0.225198	338.111	381.217	
647.433	2298.4	-0.649678	340.527	378.368	
647.609	2291.93	1.41019	341.919	387.123	
647.785	2291.41	-0.707093	342.331	383.224	
647.961	2277.35	-0.370059	346.128	383.682	
648.137	2272.41	1.81233	347.183	384.414	
648.313	2269.25	-1.83012	346.648	387.149	
648.489	2261.04	0.399514	348.967	385.956	
648.665	2254.64	-1.59393	347.154	385.56	
648.841	2248.62	3.78726	352.284	387.241	
649.016	2246.8	1.1024	351.76	384.671	
649.192	2239.27	-0.59362	356.342	388.025	
649.368	2231.11	-1.09173	353.538	389.054	
649.544	2223.67	1.28339	355.954	388.016	
649.719	2218.72	1.30596	356.815	386.389	
649.895	2211.39	1.06573	357.727	388.869	
650.071	2199.22	0.670033	359.642	390.243	
650.246	2193.7	0.498113	362.174	391.346	
650.422	2186.08	-0.0207535	363.325	390.973	
650.597	2179.28	-0.685533	362.481	389.464	
650.773	2175.01	0.519239	363.825	389.487	
650.949	2167.5	1.27463	368.901	391.253	
651.124	2163.81	0.985903	366.835	391.806	
651.3	2154.16	0.881403	369.981	391.958	
651.475	2148.72	-1.48789	370.218	391.239	
651.65	2135.06	-0.263953	373.118	392.335	
651.826	2133.84	1.40507	369.746	393.929	
652.001	2125.92	0.11137	372.746	390.287	
652.177	2123.2	0.125525	372.918	393.281	
652.352	2112.72	-0.236828	376.796	394.674	
652.527	2108.92	-0.641168	375.509	394.093	
652.702	2100	-0.055764	378.596	394.837	
652.878	2083.59	-0.687765	381.515	394.043	
653.053	2082.08	1.72728	381.189	394.771	
653.228	2076.13	-1.44556	381.191	395.531	
653.403	2071.61	-0.307172	384.9	395.605	
653.578	2068.45	-0.104997	384.897	398.476	
653.754	2063.06	0.455776	390.21	397.455	
653.929	2052.09	0.783391	387.732	396.335	
654.104	2049.69	-0.77178	389.281	396.625	
654.279	2037.37	1.21034	392.625	398.688	
654.454	2033.23	1.3407	392.335	396.57	
654.629	2028.55	0.735544	389.857	398.497	
654.804	2024.55	1.15234	396.806	400.085	
654.979	2019.19	0.414633	398.833	398.481	
655.154	2014.38	3.46708	398.914	401.656	
655.329	2001.48	-0.0210585	396.695	400.018	
655.503	1988.7	0.680453	399.905	399.017	
655.678	1988.23	0.77922	399.34	402.897	
655.853	1977.17	-0.933883	401.462	400.713	
656.028	1967.74	0.133344	403.612	400.618	
656.203	1966.15	1.16757	401.364	403.263	
656.377	1955.28	-0.785754	403.375	401.855	
656.552	1949.84	1.79514	406.736	400.471	
656.727	1942.45	-0.274658	407.527	403.889	
656.902	1936.08	1.97722	407.773	401.558	
657.076	1931.11	1.54305	410.195	405.169	
657.251	1924.57	0.577552	412.351	404.228	
657.425	1921.88	-2.52114	412.236	404.983	
657.6	1910.12	0.760631	414.769	404.862	
657.775	1905.37	0.182817	417.496	404.887	
657.949	1900.6	1.76556	417.844	406.191	
658.124	1892.25	0.93487	418.909	406.865	
658.298	1890.67	0.422531	425.784	407.029	
658.472	1882.49	-1.40449	422.012	406.235	
658.647	1876.36	1.92405	424.523	406.645	
658.821	1869.71	0.189979	423.032	409.264	
658.996	1863.77	0.831806	427.017	409.347	
659.17	1861.53	0.17623	430.996	409.426	
659.344	1850.34	0.521212	428.121	407.625	
659.519	1847.13	3.34466	431.64	411.2	
659.693	1841.42	1.94551	433.294	409.045	
659.867	1835.03	1.59307	434.302	410.923	
660.041	1833.86	-0.388095	438.541	410.974	
660.216	1829.02	1.74179	438.543	411.206	
660.39	1823.97	0.134249	437.594	412.04	
660.564	1817.27	-0.233051	439.614	414.802	
660.738	1816.08	2.06315	443.758	414.366	
660.912	1805.34	-0.148076	446.329	415.351	
661.086	1800.09	1.29147	448.237	415.421	
661.26	1790.94	-0.971363	448.218	417.153	
661.434	1784.47	2.59455	446.838	413.536	
661.608	1780.57	-0.782106	445.683	414.422	
661.782	1774.67	1.12778	451.18	416.454	
661.956	1765.43	0.830286	450.693	417.95	
662.13	1758.37	0.0773916	455.691	416.644	
662.304	1753.44	0.0773863	455.594	417.675	
662.478	1745.78	1.18619	454.44	415.368	
662.652	1742.51	-0.983788	455.635	419.117	
662.826	1734.72	-0.210992	460.052	417.362	
662.999	1726.75	-0.435921	460.719	419.353	
663.173	1718.11	0.82237	458.934	419.783	
663.347	1719.92	1.13373	462.288	420.037	
663.521	1707.97	0.87947	462.737	420.335	
663.694	1702.15	-0.688693	464.47	421.18	
663.868	1696.77	3.52184	464.834	423.593	
664.042	1688.9	0.729945	468.098	420.465	
664.215	1684.68	0.464231	467.893	419.102	
664.389	1683.53	-1.09806	469.926	421.522	
664.562	1674.99	1.12475	470.519	422.529	
664.736	1667.9	1.54212	469.821	420.73	
664.909	1664.29	2.28288	478.436	425.567	
665.083	1657.47	-0.581945	474.75	424.245	
665.256	1648.33	0.364361	476.103	425.676	
665.43	1640.33	1.63862	475.794	423.158	
665.603	1638.69	1.10988	481.037	424.419	
665.777	1629.06	2.61169	477.876	423.985	
665.95	1625.64	-0.56101	479.853	422.092	
666.123	1617.31	1.62648	482.174	427.63	
666.297	1611.62	2.85915	483.393	422.846	
666.47	1607.03	0.512393	486.635	427.885	
666.643	1595.06	1.28192	487.022	423.113	
666.816	1595.46	1.20624	486.971	426.309	
666.99	1581.01	0.481824	486.254	423.71	
667.163	1579.59	0.896607	489.139	424.695	
667.336	1572.01	-1.1328	490.919	422.811	
667.509	1557.7	0.0278444	486.544	423.987	
667.682	1555.21	0.787133	494.273	424.314	
667.855	1550.87	-1.87178	492.836	425.317	
668.029	1539.8	1.03171	493.468	423.34	
668.202	1540.22	2.07554	493.551	426.276	
668.375	1532.88	1.08272	496.171	427.599	
668.548	1522.05	0.0279557	495.519	427.68	
668.721	1517.42	0.677646	498.379	426.54	
668.893	1512.02	-0.405383	497.943	427.653	
669.066	1503.18	0.969742	498.573	428.342	
669.239	1495.46	0.585816	496.735	428.297	
669.412	1492.65	0.629005	501.853	427.979	
669.585	1486.58	2.79656	499.935	427.987	
669.758	1478.63	2.04039	503.876	428.389	
669.931	1468.36	0.729282	503.635	428.253	
670.103	1467.15	-0.779923	502.011	425.55	
670.276	1463.68	0.382404	503.459	428.462	
670.449	1454.11	-0.604006	503.848	429.724	
670.622	1441.63	-0.201168	503.702	429.039	
670.794	1436.89	-0.166399	507.059	425.292	
670.967	1432.48	-0.0554275	505.347	426.963	
671.139	1426.98	0.513226	510.701	426.481	
671.312	1416.86	-0.131567	505.883	427.82	
671.485	1408.57	1.76063	509.76	425.664	
671.657	1407.24	-0.463223	511.622	429.233	
671.83	1398.86	1.29235	511.427	430.039	
672.002	1395.02	0.808746	512.851	430.456	
672.175	1385.97	0.559506	510.891	429.291	
672.347	1378.21	-1.04059	510.013	427.041	
672.519	1373.52	-0.0964605	510.446	426.089	
672.692	1370.46	0.0137898	515.096	426.887	
672.864	1366.4	1.97854	517.884	428.379	
673.037	1360.62	-0.186362	513.959	429.176	
673.209	1350.45	0.454278	515.252	428.71	
673.381	1345.26	0.178694	511.257	426.904	
673.553	1337.49	0.921033	521.955	428.088	
673.726	1333.61	-0.0275104	519.431	430.228	
673.898	1327.7	0.584423	518.905	429.431	
674.07	1324.52	-0.371447	518.372	431.105	
674.242	1313.94	1.13311	521.447	426.541	
674.414	1305.94	0.49406	524.426	428.336	
674.587	1301.82	3.2848	524.434	427.307	
674.759	1300.68	0.69463	522.322	431.562	
674.931	1292.79	1.48244	521.358	426.51	
675.103	1283.96	-1.41832	518.474	427.848	
675.275	1279.97	-0.0755511	524.215	428.059	
675.447	1274.82	-0.521444	525.51	427.899	
675.619	1267.32	0.137185	527.766	426.318	
675.791	1263.19	-0.0274224	525.964	426.352	
675.963	1257.21	1.20844	527.757	425.658	
676.134	1254.4	-0.446551	527.308	424.785	
676.306	1250.12	-0.171931	527.085	426.701	
676.478	1240.08	-0.535355	531.067	426.078	
676.65	1234.73	-0.700591	532.587	427.887	
676.822	1232.29	1.20865	530.56	428.283	
676.994	1226	1.53769	529.266	428.149	
677.165	1222.05	0.212909	530.835	432.874	
677.337	1214.24	0.891158	533.586	427.904	
677.509	1210.76	-0.795509	532.44	427.035	
677.68	1202.89	1.40087	533.044	430.291	
677.852	1200.83	-0.974279	533.331	430.757	
678.024	1192.75	2.86117	536.525	429.942	
678.195	1190.13	-1.83669	537.53	429.416	
678.367	1187.54	2.33568	539.821	430.822	
678.538	1178.77	-0.543711	538.74	429.929	
678.71	1168.44	0.866731	536.821	427.906	
678.881	1167.23	0.268607	538.833	428.956	
679.053	1163.38	0.317075	541.542	429.784	
679.224	1157.24	0.654461	539.292	428.975	
679.396	1149.44	0.144819	541.712	432.27	
679.567	1145.42	0.799305	540.95	428.726	
679.738	1137.09	1.35949	539.32	429.135	
679.91	1135.15	-0.841539	539.123	431.516	
680.081	1129.85	0.165772	545.481	428.289	
680.252	1123.07	0.248368	534.866	428.205	
680.424	1113.82	0.531699	542.271	426.01	
680.595	1112.95	3.06818	541.344	427.966	
680.766	1103.83	0.283692	538.286	426.239	
680.937	1096.1	2.77845	540.226	428.466	
681.108	1093.18	2.2203	540.031	427.748	
681.28	1090.06	0.319014	540.019	428.017	
681.451	1083.24	1.12866	542.812	425.537	
681.622	1077.44	1.39089	542.386	425.832	
681.793	1070.38	0.920927	542.867	428.755	
681.964	1065.64	-0.0622553	542.53	426.297	
682.135	1063.49	-0.748812	542.595	426.044	
682.306	1055.53	-0.548164	545.104	424.253	
682.477	1053.03	2.23117	542.125	425.47	
682.648	1047.18	0.562082	543.947	426.766	
682.819	1040.29	0.722347	541.799	426.363	
682.99	1040.04	0.62065	547.686	428.251	
683.16	1028.39	2.60212	539.532	425.706	
683.331	1024.37	0.75254	545.519	426.832	
683.502	1017.28	0.334663	543.527	423.815	
683.673	1014.08	0.725704	542.366	426.788	
683.844	1008.54	0.920315	543.034	425.927	
684.014	1002.4	0.523182	541.747	425.972	
684.185	999.344	0.902554	545.52	425.436	
684.356	991.739	2.10433	542.336	424.979	
684.526	989.894	2.56032	542.425	421.544	
684.697	982.952	-0.0980501	541.407	426.245	
684.868	978.206	-0.0700164	545.988	422.712	
685.038	973.135	-0.456248	540.221	422.252	
685.209	967.328	-0.393203	542.934	423.615	
685.379	960.922	2.61137	542.548	419.256	
685.55	956.555	-0.87836	542.672	420.638	
685.72	948.789	2.24268	541.499	420.226	
685.891	948.521	0.190272	541.961	420.422	
686.061	940.949	1.0204	539.522	417.684	
686.232	937.695	0.606183	543.281	423.102	
686.402	932.934	-0.537449	542.164	418.833	
686.572	927.631	3.57363	536.795	417.909	
686.743	920.377	-0.288676	543.645	415.571	
686.913	916.586	1.45067	541.604	421.375	
687.083	912.174	-1.23721	537.578	421.775	
687.254	908.943	4.9802	540.82	421.281	
687.424	900.241	0.45354	542.273	417.29	
687.594	897.437	0.212981	542.114	414.988	
687.764	893.471	-0.475957	538.312	419.015	
687.934	888.048	0.85494	543.872	415.869	
688.104	882.165	-0.584093	534.345	415.484	
688.275	880.103	-0.135664	540.631	415.035	
688.445	873.013	-1.73299	538.522	415.263	
688.615	868.472	2.58714	536.732	413.14	
688.785	865.939	-0.0930371	536.731	414.184	
688.955	859.751	-0.959295	535.59	416.227	
689.125	856.182	-1.50041	535.936	414.3	
689.295	851.016	0.0790112	534.686	409.202	
689.465	845.421	2.7302	533.067	411.381	
689.635	841.672	0.828396	535.797	408.992	
689.805	834.393	2.32221	534.516	411.458	
689.974	832.362	2.17682	535.748	411.455	
690.144	827.082	1.54947	535.29	409.571	
690.314	821.94	0.885437	531.77	408.559	
690.484	816.437	-1.22106	534.76	410.668	
690.654	815.646	1.83391	531.688	409.646	
690.823	808.871	-0.604886	532.428	409.872	
690.993	805.503	1.38312	532.565	408.523	
691.163	805.436	-0.799458	531.65	412.146	
691.332	799.211	1.98213	532.059	409.631	
691.502	793.651	-2.25697	531.769	408.114	
691.672	788.567	0.567351	529.712	408.53	
691.841	786.456	-1.13523	529.914	407.324	
692.011	781.191	1.25913	532.474	406.241	
692.18	777.731	2.98496	528.64	409.811	
692.35	771.403	2.50222	527.337	403.736	
692.519	771.35	0.595579	527.869	405.503	
692.689	765.514	0.598379	525.19	406.836	
692.858	761.65	-0.0224118	524.127	403.726	
693.027	759.029	1.33538	528.008	402.072	
693.197	755.646	1.05127	520.332	406.069	
693.366	750.676	2.30602	523.812	400.925	
693.536	746.502	0.392439	524.198	403.498	
693.705	739.329	0.173353	523.904	396.25	
693.874	737.404	0.0681016	521.814	401.224	
694.043	731.374	2.4364	521.417	400.356	
694.213	728.099	0.705405	518.806	399.368	
694.382	726.791	1.31292	519.383	397.811	
694.551	722.328	-0.145319	517.094	399.003	
694.72	717.013	0.429477	518.433	398.793	
694.889	714.247	1.28315	518.186	398.194	
695.058	709.637	1.76315	521.377	396.333	
695.228	704.777	-0.58783	517.396	399.572	
695.397	699.884	0.411217	518.276	394.213	
695.566	699.816	-0.21797	514.282	394.217	
695.735	695.664	-0.827688	510.004	395.586	
695.904	689.084	0.758387	512.912	395.166	
696.073	684.838	0.164777	510.247	394.459	
696.242	683.855	0.212102	514.873	395.729	
696.41	680.596	1.88758	512.201	391.154	
696.579	676.296	1.55125	511.307	393.697	
696.748	673.073	1.23963	508.983	390.688	
696.917	670.942	-0.286466	506.079	392.447	
697.086	665.671	-0.479285	511.248	391.666	
697.255	661.587	-1.66387	508.775	389.238	
697.423	656.725	-0.892158	506.566	388.496	
697.592	654.572	0.652453	504.32	389.697	
697.761	649.796	2.61692	505.429	389.31	
697.929	649.069	0.129835	505.079	389.607	
698.098	643.819	1.63567	503.409	385.874	
698.267	638.484	-0.359144	500.306	388.428	
698.435	637.978	0.671573	504.545	387.266	
698.604	633.465	1.47781	503.171	385.658	
698.772	627.589	2.07128	497.107	383.515	
698.941	627.554	1.28692	498.667	384.275	
699.109	623.574	0.182303	499.512	381.126	
699.278	620.78	2.10284	494.304	385.643	
699.446	613.413	0.866297	498.001	380.885	
699.615	613.067	1.90396	494.484	380.33	
699.783	609.513	0.527796	491.325	383.225	
699.952	603.408	2.83858	487.228	378.975	
700.12	600.091	0.487838	489.374	377.76	
700.288	595.504	2.78944	489.965	377.547	
700.457	595.364	-0.0423126	489.393	379.127	
700.625	590.971	4.12607	486.398	376.313	
700.793	585.663	1.39183	485.081	377.723	
700.961	585.946	0.69007	488.305	372.953	
701.13	579.899	2.98424	484.102	373.397	
701.298	579.295	0.557385	480.292	373.703	
701.466	575.98	2.37514	486.339	370.393	
701.634	571.674	0.232447	482.004	374.476	
701.802	565.11	0.121436	479.448	371.949	
701.97	563.548	-0.886533	479.869	371.863	
702.138	562.525	-0.19214	478.321	369.442	
702.306	557.89	0.630216	478.845	369.52	
702.474	554.145	0.193186	476.514	365.929	
702.642	551.163	0.0352699	476.908	368.747	
702.81	548.892	0.767373	474.972	364.776	
702.978	545.791	0.0795832	470.558	367.453	
703.146	544.92	0.550891	467.393	363.76	
703.314	541.142	0.00891577	471.899	365.534	
703.482	538.321	1.36961	471.15	365.37	
703.65	531.941	-0.259396	464.892	365.635	
703.818	531.757	3.94916	465.967	360.386	
703.985	529.309	-1.06533	464.314	362.054	
704.153	524.234	1.97639	461.986	360.568	
704.321	522.503	-1.75388	460.472	363.539	
704.488	518.242	1.96318	463.191	358.884	
704.656	516.108	1.20763	463.246	356.633	
704.824	512.782	0.321407	460.76	353.104	
704.991	510.538	0.33222	461.844	355.441	
705.159	509.92	2.88153	460.134	354.447	
705.327	505.386	0.241013	454.879	357.546	
705.494	501.914	2.213	455.385	353.724	
705.662	499.069	-0.242479	458.133	351.505	
705.829	495.981	0.22432	451.939	352.304	
705.997	492.473	0.440654	450.836	354.111	
706.164	488.828	-0.094114	450.703	349.812	
706.332	485.419	1.92275	449.298	352.25	
706.499	484.388	2.64709	444.6	346.18	
706.666	482.559	2.48903	443.181	345.931	
706.834	477.479	1.42294	443.077	349.678	
707.001	474.285	-1.59892	439.789	344.141	
707.168	471.518	1.05966	440.136	343.708	
707.336	472.43	-2.36734	441.305	348.779	
707.503	468.389	3.15302	436.606	345.162	
707.67	468.787	1.23262	436.55	343.484	
707.837	461.639	3.37763	436.096	338.781	
708.004	459.159	0.89451	432.464	339.082	
708.172	456.741	6.68474	431.494	337.27	
708.339	456.491	-1.67369	431.571	340.492	
708.506	452.424	-0.458494	430.572	335.85	
708.673	451.645	0.708455	425.416	336.044	
708.84	447.013	3.23915	426.853	335.361	
709.007	444.848	0.454741	425.961	335.653	
709.174	442.741	2.57838	425.731	335.894	
709.341	440.214	-0.7629	425.088	334.794	
709.508	440.112	3.02282	424.287	334.149	
709.675	436.438	0.216237	425.582	332.394	
709.842	433.2	0.413142	420.719	334.476	
710.009	429.467	-0.166158	419.352	329.419	
710.175	429.293	0.156493	419.914	327.548	
710.342	429.718	1.32111	416.804	326.248	
710.509	424.241	1.41087	414.737	329.137	
710.676	422.752	-1.19517	411.407	329.085	
710.843	421.547	0.457659	416.782	331.814	
711.009	420.026	0.950671	415.817	325.521	
711.176	416.882	1.02312	411.946	325.214	
711.343	412.096	0.0323128	412.918	321.473	
711.509	414.155	-1.43457	406.551	322.832	
711.676	406.669	1.38116	408.757	324.909	
711.843	408.095	-0.74582	409.923	323.861	
712.009	402.817	0.0330277	407.118	322.604	
712.176	401.821	3.61633	404.387	315.841	
712.342	402.49	0.121983	400.76	318.846	
712.509	397.705	0.500719	401.351	316.154	
712.675	395.848	-0.470954	398.554	318.417	
712.842	394.36	-0.49581	403.213	317.386	
713.008	390.215	2.34417	398.607	315.997	
713.174	391.471	-0.910318	399.061	314.477	
713.341	385.299	-2.41033	394.88	312.098	
713.507	385.502	1.33146	392.102	315.429	
713.673	382.02	-1.09657	392.925	310.586	
713.84	380.018	1.06649	388.372	311.438	
714.006	378.026	-1.48222	392.225	311.578	
714.172	377.042	1.31304	390.286	305.485	
714.339	373.814	0.893646	384.276	306.983	
714.505	372.33	1.305	385.973	305.063	
714.671	367.613	1.36606	380.192	302.743	
714.837	368.112	3.27849	383.021	303.451	
715.003	367.342	-1.7139	381.991	307.319	
715.169	364.823	1.72833	380.369	304.831	
715.335	361.553	2.29685	374.062	299.162	
715.501	358.165	-1.17644	381.951	302.868	
715.667	358.996	1.57174	379.584	301.938	
715.833	355.024	4.97298	374.404	298.655	
715.999	356.358	3.94857	370.116	298.433	
716.165	351.082	0.940533	377.405	297.522	
716.331	356.401	1.02171	369.086	300.677	
716.497	345.904	2.53013	372.095	296.954	
716.663	347.545	-0.22979	371.269	294.332	
716.829	343.702	1.7865	370.722	291.808	
716.995	348.509	3.1896	367.128	294.303	
717.161	341.797	3.88361	367.574	291.987	
717.326	341.199	-1.37154	365.012	290.557	
717.492	338.501	-0.0791168	363.942	290.495	
717.658	335.379	1.08477	357.171	292.482	
717.823	336.026	-0.360758	359.248	287.408	
717.989	333.327	1.30211	354.742	287.176	
718.155	327.256	-1.09301	362.376	284.965	
718.32	328.327	-2.2231	347.508	284.746	
718.486	326.179	-1.17833	356.834	279.603	
718.651	324.085	2.99799	347.918	285.116	
718.817	322.741	0.997826	353.027	283.965	
718.983	320.812	3.10138	347.541	283.744	
719.148	321.153	6.19605	345.557	275.945	
719.314	318.934	0.18433	346.654	282.517	
719.479	317.679	-0.327739	345.071	274.631	
719.644	315.013	4.14831	342.071	281.449	
719.81	311.1	1.70142	341.965	273.236	
719.975	313.383	1.74174	340.326	274.818	
720.141	308.642	-0.131848	342.81	273.858	
720.306	307.005	1.05904	341.34	271.865	
720.471	304.833	-0.22188	336.024	267.686	
720.636	302.44	2.56002	335.482	274.409	
720.802	300.158	1.68366	334.327	266.881	
720.967	300.625	4.17892	333.309	267.496	
721.132	298.979	-0.136444	332.63	267.996	
721.297	297.355	4.87718	333.85	273.153	
721.462	298.725	1.78702	329.813	265.778	
721.628	292.586	-1.3748	327.708	263.499	
721.793	293.14	1.61853	326.133	260.925	
721.958	291.381	-3.63228	323.638	261.847	
722.123	291.049	-0.662658	319.848	257.58	
722.288	288.748	-0.983699	322.315	261.653	
722.453	289.42	-0.51171	323.076	256.074	
722.618	284.517	6.43603	321.882	261.587	
722.783	284.44	1.21417	320.633	256.687	
722.948	282.645	-1.05902	317.201	255.615	
723.112	278.278	1.60287	311.491	257.844	
723.277	280.609	-1.74598	318.449	256.846	
723.442	277.984	1.27736	317.046	254.615	
723.607	275.528	-1.2984	310.995	250.903	
723.772	272.013	3.03242	311.669	253.701	
723.937	272.584	3.67835	311.456	251.102	
724.101	269.217	0.982977	308.169	251.563	
724.266	269.7	-2.7536	305.394	245.167	
724.431	267.666	4.58016	305.31	244.298	
724.595	270.475	0.275346	303.591	249.899	
724.76	261.742	3.9705	303.202	240.192	
724.925	262.734	-2.69319	294.809	246.505	
725.089	263.618	1.57845	300.566	248.009	
725.254	261.787	-4.63588	297.891	245.678	
725.418	257.551	3.44084	302.765	244.77	
725.583	259.923	-0.921399	296.1	243.179	
725.747	256.196	0.837766	295.862	242.922	
725.912	254.18	6.72908	290.248	238.867	
726.076	254.851	5.218	292.039	236.369	
726.241	252.051	-2.07873	289.504	239.735	
726.405	251.087	4.55897	293.903	235.167	
726.57	250.171	-2.26201	288.831	237.997	
726.734	248.584	3.21073	288.183	236.811	
726.898	248.035	-2.83743	287.642	239.984	
727.062	247.474	13.8173	289.727	220.209	
727.227	245.312	0.316388	283.986	233.922	
727.391	243.641	-0.73081	278.97	235.308	
727.555	244.894	-0.319263	282.022	232.192	
727.719	239.618	-1.56342	281.259	229.083	
727.884	238.427	-1.58385	274.535	233.053	
728.048	235.235	0.113421	279.752	226.256	
728.212	238.729	-1.38686	281.646	231.934	
728.376	237.406	5.20576	278.333	223.606	
728.54	233.404	-2.61758	274.84	228.347	
728.704	229.27	2.05494	276.706	224.917	
728.868	233.234	1.46324	274.217	225.186	
729.032	229.406	4.08203	277.874	221.577	
729.196	227.297	1.58759	268.278	227.749	
729.36	226.16	6.33876	268.98	215.931	
729.524	228.75	-0.58206	264.1	220.446	
729.688	224.401	-3.4012	272.63	222.198	
729.852	223.757	-1.83872	263.726	213.585	
730.015	222.225	-0.962778	267.521	216.435	
730.179	223.108	-1.45206	261.202	216.593	
730.343	219.663	6.07218	263.982	214.103	
730.507	217.977	3.87943	260.362	218.548	
730.671	220.137	0.894785	264.618	217.227	
730.834	217.319	1.02995	257.428	216.164	
730.998	213.474	2.17427	261.644	213.81	
731.162	215.099	9.06325	254.049	218.748	
731.325	214.776	-0.417543	257.186	214.438	
731.489	214.9	4.53007	257.863	211.966	
731.652	215.107	0.892314	254.038	205.259	
731.816	209.318	-1.51348	256.793	214.708	
731.98	206.975	2.75281	255.621	207.431	
732.143	210.802	-0.378853	250.987	210.775	
732.307	204.129	4.77994	250.196	202.463	
732.47	205.139	-5.0514	245.397	208.34	
732.633	203.235	4.09023	248.906	202.417	
732.797	205.705	3.51564	247.726	207.643	
732.96	203.412	4.64829	245.849	203.737	
733.124	198.576	-0.0797492	247.807	207.6	
733.287	201.605	3.50964	246.247	198.853	
733.45	199.405	-0.595713	241.025	198.333	
733.614	197.244	4.08724	241.347	202.668	
733.777	195.579	-2.1107	243.275	202.455	
733.94	196.416	1.65424	242.848	199.067	
734.103	195.656	3.93818	236.284	202.472	
734.266	194.36	3.49568	242.973	199.494	
734.43	197.597	2.27145	237.825	194.256	
734.593	194.04	0.3	233.767	192.7	
734.756	190.588	1.41797	238.493	199.016	
734.919	189.682	6.01977	234.711	192.719	
735.082	187.43	2.44967	234.737	198.49	
735.245	188.485	3.71919	236.066	189.659	
735.408	185.679	4.87314	226.089	194.267	
735.571	183.941	4.64891	234.86	189.036	
735.734	184.073	-1.11306	227.933	193.879	
735.897	183.279	-0.89298	230.561	189.219	
736.06	181.018	2.6501	227.105	193.088	
736.223	176.159	4.38816	226.122	187.314	
736.386	177.486	-0.553655	224.738	191.321	
736.549	180.265	-4.1867	228.077	187.921	
736.711	179.1	5.34302	224.722	191.337	
736.874	173.588	-0.274602	224.232	183.238	
737.037	174.675	2.43834	221.771	188.014	
737.2	172.593	-3.54953	221.097	185.275	
737.362	175.21	-5.52904	216.173	181.657	
737.525	171.784	2.58599	214.125	176.146	
737.688	169.935	3.68875	206.499	180.03	
737.85	170.066	-0.0585289	213.559	179.027	
738.013	170.923	4.74463	214.07	186.571	
738.176	170.175	0.0773171	213.724	179.253	
738.338	165.832	-3.272	213.013	177.92	
738.501	168.377	9.12433	209.269	180.972	
738.663	167.462	0.688593	207.955	176.267	
738.826	161.061	2.19899	209.082	175.492	
738.988	164.911	-1.05003	202.935	174.871	
739.151	162.261	-0.153041	210.195	177.993	
739.313	161.077	-0.703144	210.588	173.214	
739.475	160.974	3.0519	212.723	171.968	
739.638	160.191	1.79142	204.467	174.861	
739.8	159.829	5.10956	208.782	170.256	
739.962	159.624	-2.52541	203.61	170.188	
740.125	158.173	8.77907	202.716	168.035	
740.287	158.607	0.0558737	203.796	172.88	
740.449	156.517	-0.72179	202.077	171.107	
740.611	154.436	5.85234	200.08	171.216	
740.774	156.51	-4.89898	202.657	165.27	
740.936	151.901	0.964854	195.677	167.885	
741.098	154.169	-0.861075	196.264	164.63	
741.26	151.852	2.81611	196.274	163.995	
741.422	150.941	6.25597	196.063	167.049	
741.584	147.904	12.1283	192.157	164.123	
741.746	145.494	-3.4183	195.551	168.564	
741.908	146.922	0.466363	193.08	165.039	
742.07	142.67	3.30627	193.503	158.772	
742.232	148.992	-1.01549	193.127	161.831	
742.394	141.46	-2.13959	190.824	160.882	
742.556	144.89	4.51903	186.827	158.869	
742.718	142.217	0.122782	186.477	161.511	
742.88	139.634	-1.30743	187.927	157.944	
743.042	138.588	9.91651	189.749	156.751	
743.203	141.332	2.23484	186.849	160.054	
743.365	137.984	-0.799002	184.135	158.023	
743.527	136.112	3.30637	187.59	155.56	
743.689	134.891	2.82773	187.464	155.702	
743.85	136.17	-3.15168	181.395	153.967	
744.012	134.433	4.32342	180.962	148.918	
744.174	131.883	-4.17522	183.417	155.807	
744.335	131.322	4.7486	181.883	150.057	
744.497	134.662	3.95325	178.617	148.409	
744.658	130.156	4.22864	176.005	149.756	
744.82	130.541	-0.0663658	175.46	150.739	
744.982	130.532	3.85474	173.877	147.462	
745.143	127.448	1.1738	168.057	146.896	
745.305	129.686	-0.855903	177.221	147.1	
745.466	127.993	-1.70374	175.441	150.977	
745.627	125.44	0.636667	173.544	146.716	
745.789	125.767	-2.88202	171.228	147.889	
745.95	123.728	-2.86102e-08	174.509	145.553	
746.112	124.637	4.39875	171.885	140.781	
746.273	122.73	0.984808	167.95	142.227	
746.434	120.88	5.47703	169.933	140.807	
746.596	122.672	7.08186	171.378	143.275	
746.757	118.42	-0.0638212	169.275	145.555	
746.918	121.987	2.93675	166.719	139.852	
747.079	120.081	-2.53302	164.208	138.931	
747.24	118.076	2.91038	164.758	138.66	
747.402	119.76	-0.252557	163.21	141.164	
747.563	117.36	-0.880281	167.306	137.649	
747.724	119.215	2.64261	160.954	132.808	
747.885	114.402	1.13949	160.747	138.009	
748.046	114.5	-3.32019	158.971	135.698	
748.207	115.806	-1.50801	163.394	132.404	
748.368	118.646	3.51051	157.194	140.647	
748.529	115.265	2.93768	158.748	137.72	
748.69	111.372	1.52333	158.929	138.413	
748.851	111.091	-0.597673	155.472	132.178	
749.012	112.574	0.734277	157.044	132.007	
749.173	112.741	-0.715867	155.404	128.597	
749.334	108.188	-0.408712	151.536	132.11	
749.494	109.482	0.437805	158.294	132.026	
749.655	110.754	-1.48733	154.978	131.291	
749.816	109.774	2.68033	152.3	128.94	
749.977	108.07	-1.5645	151.98	126.997	
750.137	107.196	1.54645	153.544	127.721	
750.298	109.788	-1.44029	152.606	126.275	
750.459	106.163	2.20188	147.812	129.093	
750.62	107.03	-2.24271	150.139	126.925	
750.78	104.422	2.07168	146.193	123.272	
750.941	104.781	2.51404	150.823	128.427	
751.101	105.004	2.22292	144.115	125.054	
751.262	103.331	0.538639	143.909	126.197	
751.422	102.517	2.69551	141.371	120.001	
751.583	101.523	5.2884	144.627	122.845	
751.743	102.514	0.246219	145.004	125.306	
751.904	100.561	-2.04404	138.371	120.953	
752.064	98.9765	0.879984	141.879	118.076	
752.225	98.9691	2.15556	144.643	123.279	
752.385	98.3721	5.01314	142.034	121.982	
752.545	98.3788	3.51506	140.326	120.322	
752.706	97.5953	6.87733	138.046	120.876	
752.866	96.8999	1.45094	138.185	121.969	
753.026	94.7577	3.56959	137.47	116.991	
753.187	94.8739	-1.7291	136.155	115.604	
753.347	94.9062	1.91029	137.244	115.783	
753.507	96.1332	3.86344	135.923	116.96	
753.667	92.8395	1.81486	134.961	116.813	
753.827	92.7974	-2.38951	132.506	116.341	
753.988	90.7521	2.17513	136.201	115.104	
754.148	91.1854	2.96857	133.315	113.244	
754.308	92.6175	-0.334812	134.948	112.86	
754.468	90.4563	0.0696568	131.781	113.717	
754.628	91.31	0.333603	133.965	109.64	
754.788	90.3771	1.70706	129.168	112.004	
754.948	89.0223	2.93465	131.736	107.419	
755.108	87.0647	2.06538	126.492	109.719	
755.268	89.2208	1.38563	127.778	109.858	
755.428	88.7419	-2.93224	129.028	108.235	
755.587	87.9137	0.578561	127.371	106.295	
755.747	87.102	2.71376	126.835	107.136	
755.907	88.3075	4.8655	123.104	105.557	
756.067	87.0181	1.49747	121.817	111.559	
756.227	84.6015	0.75317	125.204	110.278	
756.386	83.0476	0.685551	125.721	108.856	
756.546	85.0654	2.24469	121.697	106.002	
756.706	83.9144	-0.423603	119.811	104.78	
756.866	83.99	1.85613	123.751	102.915	
757.025	83.7093	-3.3582	118.952	103.526	
757.185	82.5018	2.3065	121.726	102.073	
757.344	82.6464	-1.20094	120.148	101.725	
757.504	82.6842	1.30791	118.484	104.496	
757.664	82.0058	1.90775	117.454	102.282	
757.823	80.9951	0.0544139	121.03	100.308	
757.983	79.3631	-2.35382	117.854	105.337	
758.142	76.8823	1.43056	118.85	102.274	
758.302	78.3287	5.11252	118.65	98.8511	
758.461	77.234	1.54631	116.547	97.874	
758.62	78.1806	-0.801504	117.608	100.356	
758.78	77.3608	-0.786766	120.552	99.119	
758.939	75.3866	-2.30982	115.122	101.434	
759.098	77.3443	4.52417	112.743	96.2628	
759.258	77.0326	-1.45778	111.421	96.1232	
759.417	76.435	1.55411	112.382	97.0212	
759.576	76.2495	-1.2028	112.149	95.9313	
759.735	75.1248	2.0242	113.998	96.8152	
759.895	75.6457	1.25335	111.072	93.8215	
760.054	73.4694	3.90019	109.336	97.01	
760.213	73.2314	-3.15467	110.575	98.3968	
760.372	71.3716	4.36363	111.977	96.4411	
760.531	72.6458	-3.60739	108.98	91.7057	
760.69	74.0854	3.30738	109.211	93.7317	
760.849	72.1517	1.64195	109.324	91.245	
761.008	71.1742	2.31724	107.657	95.2177	
761.167	69.6366	-2.2203	106.511	92.2477	
761.326	69.2653	3.92651	108.584	87.1139	
761.485	69.9744	2.01278	106.042	91.273	
761.644	70.2892	3.25826	102.408	88.0767	
761.803	69.9587	-0.121316	106.704	90.6183	
761.962	70.373	1.35073	104.258	86.969	
762.121	68.9675	0.905688	104.952	90.9383	
762.28	65.6037	2.20879	105.968	86.9778	
762.439	67.269	-0.957517	102.944	87.705	
762.597	68.2193	0.0674104	102.212	87.7863	
762.756	67.0843	-2.87678	97.2432	84.7727	
762.915	68.4107	0.812318	101.644	84.9008	
763.073	68.2517	1.44727	99.8617	86.2006	
763.232	65.9953	2.14332	101.613	86.9175	
763.391	65.2277	0.949063	99.0234	84.5615	
763.549	63.0781	2.21494	98.0188	88.0539	
763.708	67.0894	-0.721392	99.543	85.8864	
763.867	62.6588	3.66982	96.9059	83.5405	
764.025	63.2203	-0.928907	97.9405	83.9614	
764.184	64.4685	2.48691	95.2406	84.1269	
764.342	63.5734	2.00123	99.125	82.3567	
764.501	64.2486	-1.52287	96.645	82.834	
764.659	61.4976	3.58598	94.2935	81.3785	
764.818	63.4261	3.55506	95.881	79.4377	
764.976	63.3502	1.19685	97.591	84.7055	
765.134	61.064	2.87425	94.2515	79.7881	
765.293	60.7247	3.20112	91.3286	82.4059	
765.451	59.5682	3.48036	90.7667	76.0225	
765.609	61.1716	1.25942	93.8058	79.597	
765.768	60.6908	0.556541	96.6387	80.3135	
765.926	62.4387	1.99361	92.5643	77.5661	
766.084	59.7085	-0.639635	95.3843	80.5059	
766.242	59.7322	2.97687	89.4499	79.1097	
766.4	57.9118	-2.69001	90.6797	75.7197	
766.559	59.5208	1.53728	91.3938	74.5303	
766.717	57.5502	1.7945	90.8747	79.4254	
766.875	59.0452	0.546197	90.0571	74.138	
767.033	58.4452	0.829309	89.6684	77.2054	
767.191	55.961	4.07756	91.3046	77.5252	
767.349	53.8437	4.04427	88.4243	76.3056	
767.507	55.4998	-1.54205	86.1239	77.9185	
767.665	57.8717	2.45147	88.234	74.8194	
767.823	57.3626	0.965031	84.3835	75.2535	
767.981	57.2237	4.65477	86.8937	74.5095	
768.139	56.1195	2.64728	85.1731	71.6521	
768.297	56.0127	1.14898	88.2177	73.4724	
768.454	53.32	-2.43732	85.163	73.6932	
768.612	53.9577	1.52643	89.0079	72.3516	
768.77	55.628	2.92324	82.4459	73.7578	
768.928	54.1052	2.35617	84.6824	72.7811	
769.086	53.3855	2.86304	84.7584	72.564	
769.243	52.4771	2.29297	87.5875	72.3978	
769.401	53.5499	0.902445	77.8625	73.4959	
769.559	55.9046	1.14982	85.3779	67.1845	
769.716	52.8855	-1.86998	80.8134	71.6583	
769.874	51.5326	-1.56826	80.0641	71.319	
770.031	53.7693	-2.2538	82.7711	72.9656	
770.189	52.6493	4.04203	80.6888	69.1261	
770.347	50.8608	-2.37764	80.4164	68.1097	
770.504	52.0911	0.842324	77.3017	65.4796	
770.662	52.0289	-0.564562	78.0631	67.4652	
770.819	48.9411	-1.54972e-08	76.5061	70.997	
770.977	52.8587	-0.581849	76.1327	68.9715	
771.134	48.8583	2.90823	78.5769	68.3857	
771.291	52.2967	0.615962	77.0804	70.42	
771.449	50.7604	6.1446	76.348	66.8563	
771.606	47.5901	0.195103	77.4509	67.7458	
771.763	48.1609	0.618802	80.6203	64.4208	
771.921	48.3469	3.23522	78.1592	67.1232	
772.078	50.204	5.5043	77.5894	64.988	
772.235	48.9997	-3.61386	75.9013	67.9548	
772.393	47.736	-1.46084	78.0688	63.5618	
772.55	49.2632	-2.21082	76.5452	68.5151	
772.707	47.4559	1.36025	78.1507	65.0067	
772.864	44.2421	-0.860861	77.5082	63.9292	
773.021	46.8173	5.3813	74.0569	61.9106	
773.178	45.9034	1.75722	70.5456	64.9965	
773.335	45.599	2.74396	71.2709	63.5118	
773.492	44.1604	-1.95099	70.22	63.82	
773.649	46.6738	2.41897	72.9517	57.9106	
773.806	45.6309	3.95644	68.4283	58.4984	
773.963	46.5025	0.812817	71.554	62.6963	
774.12	43.2272	-0.0312674	72.1652	62.4723	
774.277	43.9124	1.55484	75.5274	62.7013	
774.434	47.0372	-0.157737	74.5729	63.6364	
774.591	41.6398	1.11082	74.8163	58.2069	
774.748	43.9056	5.5438	67.8811	60.8918	
774.905	42.7932	0.636804	70.2076	55.9857	
775.061	44.1198	-0.384068	67.9534	59.6853	
775.218	41.0281	5.99939	70.5895	58.5478	
775.375	42.0123	-0.144759	68.6801	59.941	
775.532	41.8327	2.4779	70.4446	57.5423	
775.688	43.9212	3.22164	66.8181	56.2411	
775.845	44.4296	-0.913384	68.8028	55.4826	
776.002	41.8006	3.18527	66.7655	60.5039	
776.158	38.5195	0.789133	71.4713	55.5242	
776.315	41.6803	3.28191	70.665	58.3032	
776.471	43.1497	5.85333	66.9807	55.9886	
776.628	44.0245	1.02536	66.0643	53.4402	
776.784	41.3152	5.50315	66.4202	55.7243	
776.941	40.7225	-0.916047	62.9352	57.6055	
777.097	44.2374	1.82647	65.0714	58.257	
777.254	40.686	0.0671386	62.6627	55.1096	
777.41	38.4322	2.50351	63.2699	52.9514	
777.567	38.6072	3.62207	63.2903	54.3198	
777.723	42.3641	3.02115	62.8955	51.8632	
777.879	39.9545	-1.16057	63.2228	51.7878	
778.036	39.2017	4.2283	67.4531	57.239	
778.192	41.4457	9.90312	62.2286	51.7201	
778.348	38.7294	-0.0172437	65.1927	54.5591	
778.505	39.8925	-4.27543	58.5286	50.4259	
778.661	36.0033	-2.41179	61.33	49.647	
778.817	41.5969	8.739	59.3986	50.729	
778.973	36.6711	0.330527	59.4021	45.1952	
779.129	38.5221	1.206	63.9005	50.3257	
779.285	36.2743	0.492809	62.8155	51.1407	
779.442	40.892	5.2969	60.4611	50.5736	
779.598	38.4605	5.52226	61.5972	51.2984	
779.754	35.6054	2.50018	53.9637	46.4573	
779.91	35.6722	2.37458	61.2986	49.9911	
