# Date: Wed Nov 8 14:21:51 2023
# LED: 1
#Wavelength	#Inital reflectance [%]	#Final reflectance [%]
91.0096	0	0
91.2522	0	0
91.4948	0	0
91.7374	0	0
91.98	0	0
92.2226	0	0
92.4651	0	0
92.7076	0	0
92.9501	0	0
93.1925	0	0
93.4349	0	0
93.6773	0	0
93.9197	0	0
94.1621	0	0
94.4044	0	0
94.6467	0	0
94.889	0	0
95.1312	0	0
95.3734	0	0
95.6156	0	0
95.8578	0	0
96.0999	0	0
96.3421	0	0
96.5842	0	0
96.8262	0	0
97.0683	0	0
97.3103	0	0
97.5523	0	0
97.7943	0	0
98.0362	0	0
98.2782	0	0
98.5201	0	0
98.7619	0	0
99.0038	0	0
99.2456	0	0
99.4874	0	0
99.7292	0	0
99.9709	0	0
100.213	0	0
100.454	0	0
100.696	0	0
100.938	0	0
101.179	0	0
101.421	0	0
101.662	0	0
101.904	0	0
102.146	0	0
102.387	0	0
102.629	0	0
102.87	0	0
103.111	0	0
103.353	0	0
103.594	0	0
103.835	0	0
104.077	0	0
104.318	0	0
104.559	0	0
104.801	0	0
105.042	0	0
105.283	0	0
105.524	0	0
105.765	0	0
106.006	0	0
106.248	0	0
106.489	0	0
106.73	0	0
106.971	0	0
107.212	0	0
107.453	0	0
107.694	0	0
107.935	0	0
108.175	0	0
108.416	0	0
108.657	0	0
108.898	0	0
109.139	0	0
109.38	0	0
109.62	0	0
109.861	0	0
110.102	0	0
110.342	0	0
110.583	0	0
110.824	0	0
111.064	0	0
111.305	0	0
111.545	0	0
111.786	0	0
112.026	0	0
112.267	0	0
112.507	0	0
112.748	0	0
112.988	0	0
113.228	0	0
113.469	0	0
113.709	0	0
113.949	0	0
114.19	0	0
114.43	0	0
114.67	0	0
114.91	0	0
115.151	0	0
115.391	0	0
115.631	0	0
115.871	0	0
116.111	0	0
116.351	0	0
116.591	0	0
116.831	0	0
117.071	0	0
117.311	0	0
117.551	0	0
117.791	0	0
118.031	0	0
118.27	0	0
118.51	0	0
118.75	0	0
118.99	0	0
119.23	0	0
119.469	0	0
119.709	0	0
119.949	0	0
120.188	0	0
120.428	0	0
120.667	0	0
120.907	0	0
121.147	0	0
121.386	0	0
121.626	0	0
121.865	0	0
122.104	0	0
122.344	0	0
122.583	0	0
122.823	0	0
123.062	0	0
123.301	0	0
123.541	0	0
123.78	0	0
124.019	0	0
124.258	0	0
124.498	0	0
124.737	0	0
124.976	0	0
125.215	0	0
125.454	0	0
125.693	0	0
125.932	0	0
126.171	0	0
126.41	0	0
126.649	0	0
126.888	0	0
127.127	0	0
127.366	0	0
127.605	0	0
127.844	0	0
128.082	0	0
128.321	0	0
128.56	0	0
128.799	0	0
129.037	0	0
129.276	0	0
129.515	0	0
129.753	0	0
129.992	0	0
130.231	0	0
130.469	0	0
130.708	0	0
130.946	0	0
131.185	0	0
131.423	0	0
131.662	0	0
131.9	0	0
132.138	0	0
132.377	0	0
132.615	0	0
132.853	0	0
133.092	0	0
133.33	0	0
133.568	0	0
133.806	0	0
134.045	0	0
134.283	0	0
134.521	0	0
134.759	0	0
134.997	0	0
135.235	0	0
135.473	0	0
135.711	0	0
135.949	0	0
136.187	0	0
136.425	0	0
136.663	0	0
136.901	0	0
137.139	0	0
137.377	0	0
137.614	0	0
137.852	0	0
138.09	0	0
138.328	0	0
138.565	0	0
138.803	0	0
139.041	0	0
139.278	0	0
139.516	0	0
139.754	0	0
139.991	0	0
140.229	0	0
140.466	0	0
140.704	0	0
140.941	0	0
141.179	0	0
141.416	0	0
141.653	0	0
141.891	0	0
142.128	0	0
142.365	0	0
142.603	0	0
142.84	0	0
143.077	0	0
143.314	0	0
143.552	0	0
143.789	0	0
144.026	0	0
144.263	0	0
144.5	0	0
144.737	0	0
144.974	0	0
145.211	0	0
145.448	0	0
145.685	0	0
145.922	0	0
146.159	0	0
146.396	0	0
146.633	0	0
146.869	0	0
147.106	0	0
147.343	0	0
147.58	0	0
147.817	0	0
148.053	0	0
148.29	0	0
148.527	0	0
148.763	0	0
149	0	0
149.236	0	0
149.473	0	0
149.71	0	0
149.946	0	0
150.182	0	0
150.419	0	0
150.655	0	0
150.892	0	0
151.128	0	0
151.365	0	0
151.601	0	0
151.837	0	0
152.073	0	0
152.31	0	0
152.546	0	0
152.782	0	0
153.018	0	0
153.254	0	0
153.491	0	0
153.727	0	0
153.963	0	0
154.199	0	0
154.435	0	0
154.671	0	0
154.907	0	0
155.143	0	0
155.379	0	0
155.615	0	0
155.851	0	0
156.086	0	0
156.322	0	0
156.558	0	0
156.794	0	0
157.03	0	0
157.265	0	0
157.501	0	0
157.737	0	0
157.972	0	0
158.208	0	0
158.444	0	0
158.679	0	0
158.915	0	0
159.15	0	0
159.386	0	0
159.621	0	0
159.857	0	0
160.092	0	0
160.328	0	0
160.563	0	0
160.798	0	0
161.034	0	0
161.269	0	0
161.504	0	0
161.739	0	0
161.975	0	0
162.21	0	0
162.445	0	0
162.68	0	0
162.915	0	0
163.15	0	0
163.385	0	0
163.621	0	0
163.856	0	0
164.091	0	0
164.326	0	0
164.561	0	0
164.795	0	0
165.03	0	0
165.265	0	0
165.5	0	0
165.735	0	0
165.97	0	0
166.204	0	0
166.439	0	0
166.674	0	0
166.909	0	0
167.143	0	0
167.378	0	0
167.613	0	0
167.847	0	0
168.082	0	0
168.316	0	0
168.551	0	0
168.785	0	0
169.02	0	0
169.254	0	0
169.489	0	0
169.723	0	0
169.958	0	0
170.192	0	0
170.426	0	0
170.66	0	0
170.895	0	0
171.129	0	0
171.363	0	0
171.597	0	0
171.832	0	0
172.066	0	0
172.3	0	0
172.534	0	0
172.768	0	0
173.002	0	0
173.236	0	0
173.47	0	0
173.704	0	0
173.938	0	0
174.172	0	0
174.406	0	0
174.64	0	0
174.874	0	0
175.107	0	0
175.341	0	0
175.575	0	0
175.809	0	0
176.042	0	0
176.276	0	0
176.51	0	0
176.743	0	0
176.977	0	0
177.211	0	0
177.444	0	0
177.678	0	0
177.911	0	0
178.145	0	0
178.378	0	0
178.612	0	0
178.845	0	0
179.079	0	0
179.312	0	0
179.545	0	0
179.779	0	0
180.012	0	0
180.245	0	0
180.478	0	0
180.712	0	0
180.945	0	0
181.178	0	0
181.411	0	0
181.644	0	0
181.877	0	0
182.111	0	0
182.344	0	0
182.577	0	0
182.81	0	0
183.043	0	0
183.275	0	0
183.508	0	0
183.741	0	0
183.974	0	0
184.207	0	0
184.44	0	0
184.673	0	0
184.905	0	0
185.138	0	0
185.371	0	0
185.604	0	0
185.836	0	0
186.069	0	0
186.302	0	0
186.534	0	0
186.767	0	0
186.999	0	0
187.232	0	0
187.464	0	0
187.697	0	0
187.929	0	0
188.162	0	0
188.394	0	0
188.626	0	0
188.859	0	0
189.091	0	0
189.323	0	0
189.556	0	0
189.788	0	0
190.02	0	0
190.252	0	0
190.484	0	0
190.717	0	0
190.949	0	0
191.181	0	0
191.413	0	0
191.645	0	0
191.877	0	0
192.109	0	0
192.341	0	0
192.573	0	0
192.805	0	0
193.037	0	0
193.268	0	0
193.5	0	0
193.732	0	0
193.964	0	0
194.196	0	0
194.427	0	0
194.659	0	0
194.891	0	0
195.123	0	0
195.354	0	0
195.586	0	0
195.817	0	0
196.049	0	0
196.281	0	0
196.512	0	0
196.744	0	0
196.975	0	0
197.206	0	0
197.438	0	0
197.669	0	0
197.901	0	0
198.132	0	0
198.363	0	0
198.595	0	0
198.826	0	0
199.057	0	0
199.288	0	0
199.519	0	0
199.751	0	0
199.982	0	0
200.213	0	0
200.444	0	0
200.675	0	0
200.906	0	0
201.137	0	0
201.368	0	0
201.599	0	0
201.83	0	0
202.061	0	0
202.292	0	0
202.523	0	0
202.754	0	0
202.984	0	0
203.215	0	0
203.446	0	0
203.677	0	0
203.907	0	0
204.138	0	0
204.369	0	0
204.599	0	0
204.83	0	0
205.061	0	0
205.291	0	0
205.522	0	0
205.752	0	0
205.983	0	0
206.213	0	0
206.444	0	0
206.674	0	0
206.904	0	0
207.135	0	0
207.365	0	0
207.595	0	0
207.826	0	0
208.056	0	0
208.286	0	0
208.516	0	0
208.747	0	0
208.977	0	0
209.207	0	0
209.437	0	0
209.667	0	0
209.897	0	0
210.127	0	0
210.357	0	0
210.587	0	0
210.817	0	0
211.047	0	0
211.277	0	0
211.507	0	0
211.737	0	0
211.967	0	0
212.196	0	0
212.426	0	0
212.656	0	0
212.886	0	0
213.115	0	0
213.345	0	0
213.575	0	0
213.804	0	0
214.034	0	0
214.264	0	0
214.493	0	0
214.723	0	0
214.952	0	0
215.182	0	0
215.411	0	0
215.641	0	0
215.87	0	0
216.099	0	0
216.329	0	0
216.558	0	0
216.787	0	0
217.017	0	0
217.246	0	0
217.475	0	0
217.704	0	0
217.934	0	0
218.163	0	0
218.392	0	0
218.621	0	0
218.85	0	0
219.079	0	0
219.308	0	0
219.537	0	0
219.766	0	0
219.995	0	0
220.224	0	0
220.453	0	0
220.682	0	0
220.911	0	0
221.14	0	0
221.368	0	0
221.597	0	0
221.826	0	0
222.055	0	0
222.283	0	0
222.512	0	0
222.741	0	0
222.969	0	0
223.198	0	0
223.426	0	0
223.655	0	0
223.884	0	0
224.112	0	0
224.341	0	0
224.569	0	0
224.797	0	0
225.026	0	0
225.254	0	0
225.483	0	0
225.711	0	0
225.939	0	0
226.168	0	0
226.396	0	0
226.624	0	0
226.852	0	0
227.08	0	0
227.309	0	0
227.537	0	0
227.765	0	0
227.993	0	0
228.221	0	0
228.449	0	0
228.677	0	0
228.905	0	0
229.133	0	0
229.361	0	0
229.589	0	0
229.817	0	0
230.045	0	0
230.272	0	0
230.5	0	0
230.728	0	0
230.956	0	0
231.183	0	0
231.411	0	0
231.639	0	0
231.866	0	0
232.094	0	0
232.322	0	0
232.549	0	0
232.777	0	0
233.004	0	0
233.232	0	0
233.459	0	0
233.687	0	0
233.914	0	0
234.142	0	0
234.369	0	0
234.596	0	0
234.824	0	0
235.051	0	0
235.278	0	0
235.506	0	0
235.733	0	0
235.96	0	0
236.187	0	0
236.414	0	0
236.641	0	0
236.869	0	0
237.096	0	0
237.323	0	0
237.55	0	0
237.777	0	0
238.004	0	0
238.231	0	0
238.458	0	0
238.685	0	0
238.911	0	0
239.138	0	0
239.365	0	0
239.592	0	0
239.819	0	0
240.045	0	0
240.272	0	0
240.499	0	0
240.726	0	0
240.952	0	0
241.179	0	0
241.405	0	0
241.632	0	0
241.859	0	0
242.085	0	0
242.312	0	0
242.538	0	0
242.764	0	0
242.991	0	0
243.217	0	0
243.444	0	0
243.67	0	0
243.896	0	0
244.123	0	0
244.349	0	0
244.575	0	0
244.801	0	0
245.028	0	0
245.254	0	0
245.48	0	0
245.706	0	0
245.932	0	0
246.158	0	0
246.384	0	0
246.61	0	0
246.836	0	0
247.062	0	0
247.288	0	0
247.514	0	0
247.74	0	0
247.966	0	0
248.192	0	0
248.418	0	0
248.643	0	0
248.869	0	0
249.095	0	0
249.321	0	0
249.546	0	0
249.772	0	0
249.998	0	0
250.223	0	0
250.449	0	0
250.675	0	0
250.9	0	0
251.126	0	0
251.351	0	0
251.577	0	0
251.802	0	0
252.027	0	0
252.253	0	0
252.478	0	0
252.704	0	0
252.929	0	0
253.154	0	0
253.379	0	0
253.605	0	0
253.83	0	0
254.055	0	0
254.28	0	0
254.505	0	0
254.731	0	0
254.956	0	0
255.181	0	0
255.406	0	0
255.631	0	0
255.856	0	0
256.081	0	0
256.306	0	0
256.531	0	0
256.756	0	0
256.98	0	0
257.205	0	0
257.43	0	0
257.655	0	0
257.88	0	0
258.104	0	0
258.329	0	0
258.554	0	0
258.779	0	0
259.003	0	0
259.228	0	0
259.452	0	0
259.677	0	0
259.902	0	0
260.126	0	0
260.351	0	0
260.575	0	0
260.799	0	0
261.024	0	0
261.248	0	0
261.473	0	0
261.697	0	0
261.921	0	0
262.146	0	0
262.37	0	0
262.594	0	0
262.818	0	0
263.043	0	0
263.267	0	0
263.491	0	0
263.715	0	0
263.939	0	0
264.163	0	0
264.387	0	0
264.611	0	0
264.835	0	0
265.059	0	0
265.283	0	0
265.507	0	0
265.731	0	0
265.955	0	0
266.179	0	0
266.402	0	0
266.626	0	0
266.85	0	0
267.074	0	0
267.298	0	0
267.521	0	0
267.745	0	0
267.969	0	0
268.192	0	0
268.416	0	0
268.639	0	0
268.863	0	0
269.086	0	0
269.31	0	0
269.533	0	0
269.757	0	0
269.98	0	0
270.204	0	0
270.427	0	0
270.65	0	0
270.874	0	0
271.097	0	0
271.32	0	0
271.543	0	0
271.767	0	0
271.99	0	0
272.213	0	0
272.436	0	0
272.659	0	0
272.882	0	0
273.105	0	0
273.328	0	0
273.551	0	0
273.774	0	0
273.997	0	0
274.22	0	0
274.443	0	0
274.666	0	0
274.889	0	0
275.112	0	0
275.335	0	0
275.557	0	0
275.78	0	0
276.003	0	0
276.226	0	0
276.448	0	0
276.671	0	0
276.894	0	0
277.116	0	0
277.339	0	0
277.561	0	0
277.784	0	0
278.007	0	0
278.229	0	0
278.452	0	0
278.674	0	0
278.896	0	0
279.119	0	0
279.341	0	0
279.563	0	0
279.786	0	0
280.008	0	0
280.23	0	0
280.453	0	0
280.675	0	0
280.897	0	0
281.119	0	0
281.341	0	0
281.563	0	0
281.785	0	0
282.008	0	0
282.23	0	0
282.452	0	0
282.674	0	0
282.896	0	0
283.117	0	0
283.339	0	0
283.561	0	0
283.783	0	0
284.005	0	0
284.227	0	0
284.449	0	0
284.67	0	0
284.892	0	0
285.114	0	0
285.336	0	0
285.557	0	0
285.779	0	0
286	0	0
286.222	0	0
286.444	0	0
286.665	0	0
286.887	0	0
287.108	0	0
287.33	0	0
287.551	0	0
287.772	0	0
287.994	0	0
288.215	0	0
288.437	0	0
288.658	0	0
288.879	0	0
289.1	0	0
289.322	0	0
289.543	0	0
289.764	0	0
289.985	0	0
290.206	0	0
290.427	0	0
290.649	0	0
290.87	0	0
291.091	0	0
291.312	0	0
291.533	0	0
291.754	0	0
291.974	0	0
292.195	0	0
292.416	0	0
292.637	0	0
292.858	0	0
293.079	0	0
293.3	0	0
293.52	0	0
293.741	0	0
293.962	0	0
294.182	0	0
294.403	0	0
294.624	0	0
294.844	0	0
295.065	0	0
295.286	0	0
295.506	0	0
295.727	0	0
295.947	0	0
296.168	0	0
296.388	0	0
296.608	0	0
296.829	0	0
297.049	0	0
297.269	0	0
297.49	0	0
297.71	0	0
297.93	0	0
298.151	0	0
298.371	0	0
298.591	0	0
298.811	0	0
299.031	0	0
299.251	0	0
299.471	0	0
299.691	0	0
299.911	0	0
300.132	0	0
300.352	0	0
300.571	0	0
300.791	0	0
301.011	0	0
301.231	0	0
301.451	0	0
301.671	0	0
301.891	0	0
302.11	0	0
302.33	0	0
302.55	0	0
302.77	0	0
302.989	0	0
303.209	0	0
303.429	0	0
303.648	0	0
303.868	0	0
304.087	0	0
304.307	0	0
304.526	0	0
304.746	0	0
304.965	0	0
305.185	0	0
305.404	0	0
305.624	0	0
305.843	0	0
306.062	0	0
306.282	0	0
306.501	0	0
306.72	0	0
306.939	0	0
307.159	0	0
307.378	0	0
307.597	0	0
307.816	0	0
308.035	0	0
308.254	0	0
308.473	0	0
308.692	0	0
308.911	0	0
309.13	0	0
309.349	0	0
309.568	0	0
309.787	0	0
310.006	0	0
310.225	0	0
310.444	0	0
310.662	0	0
310.881	0	0
311.1	0	0
311.319	0	0
311.537	0	0
311.756	0	0
311.975	0	0
312.193	0	0
312.412	0	0
312.631	0	0
312.849	0	0
313.068	0	0
313.286	0	0
313.505	0	0
313.723	0	0
313.941	0	0
314.16	0	0
314.378	0	0
314.597	0	0
314.815	0	0
315.033	0	0
315.252	0	0
315.47	0	0
315.688	0	0
315.906	0	0
316.124	0	0
316.343	0	0
316.561	0	0
316.779	0	0
316.997	0	0
317.215	0	0
317.433	0	0
317.651	0	0
317.869	0	0
318.087	0	0
318.305	0	0
318.523	0	0
318.741	0	0
318.958	0	0
319.176	0	0
319.394	0	0
319.612	0	0
319.83	0	0
320.047	0	0
320.265	0	0
320.483	0	0
320.7	0	0
320.918	0	0
321.136	0	0
321.353	0	0
321.571	0	0
321.788	0	0
322.006	0	0
322.223	0	0
322.441	0	0
322.658	0	0
322.875	0	0
323.093	0	0
323.31	0	0
323.528	0	0
323.745	0	0
323.962	0	0
324.179	0	0
324.397	0	0
324.614	0	0
324.831	0	0
325.048	0	0
325.265	0	0
325.482	0	0
325.699	0	0
325.916	0	0
326.133	0	0
326.35	0	0
326.567	0	0
326.784	0	0
327.001	0	0
327.218	0	0
327.435	0	0
327.652	0	0
327.869	0	0
328.086	0	0
328.302	0	0
328.519	0	0
328.736	0	0
328.953	0	0
329.169	0	0
329.386	0	0
329.602	0	0
329.819	0	0
330.036	0	0
330.252	0	0
330.469	0	0
330.685	0	0
330.902	0	0
331.118	0	0
331.335	0	0
331.551	0	0
331.767	0	0
331.984	0	0
332.2	0	0
332.416	0	0
332.633	0	0
332.849	0	0
333.065	0	0
333.281	0	0
333.497	0	0
333.714	0	0
333.93	0	0
334.146	0	0
334.362	0	0
334.578	0	0
334.794	0	0
335.01	0	0
335.226	0	0
335.442	0	0
335.658	0	0
335.874	0	0
336.09	0	0
336.305	0	0
336.521	0	0
336.737	0	0
336.953	0	0
337.168	0	0
337.384	0	0
337.6	0	0
337.816	0	0
338.031	0	0
338.247	0	0
338.462	0	0
338.678	0	0
338.894	0	0
339.109	0	0
339.325	0	0
339.54	0	0
339.755	0	0
339.971	0	0
340.186	0	0
340.402	0	0
340.617	0	0
340.832	0	0
341.048	0	0
341.263	0	0
341.478	0	0
341.693	0	0
341.909	0	0
342.124	0	0
342.339	0	0
342.554	0	0
342.769	0	0
342.984	0	0
343.199	0	0
343.414	0	0
343.629	0	0
343.844	0	0
344.059	0	0
344.274	0	0
344.489	0	0
344.704	0	0
344.919	0	0
345.133	0	0
345.348	0	0
345.563	0	0
345.778	0	0
345.992	0	0
346.207	0	0
346.422	0	0
346.636	0	0
346.851	0	0
347.066	0	0
347.28	0	0
347.495	0	0
347.709	0	0
347.924	0	0
348.138	0	0
348.353	0	0
348.567	0	0
348.782	0	0
348.996	0	0
349.21	0	0
349.425	0	0
349.639	0	0
349.853	0	0
350.067	0	0
350.282	0	0
350.496	0	0
350.71	0	0
350.924	0	0
351.138	0	0
351.352	0	0
351.566	0	0
351.78	0	0
351.994	0	0
352.208	0	0
352.422	0	0
352.636	0	0
352.85	0	0
353.064	0	0
353.278	0	0
353.492	0	0
353.706	0	0
353.919	0	0
354.133	0	0
354.347	0	0
354.561	0	0
354.774	0	0
354.988	0	0
355.202	0	0
355.415	0	0
355.629	0	0
355.842	0	0
356.056	0	0
356.269	0	0
356.483	0	0
356.696	0	0
356.91	0	0
357.123	0	0
357.337	0	0
357.55	0	0
357.763	0	0
357.977	0	0
358.19	0	0
358.403	0	0
358.616	0	0
358.83	0	0
359.043	0	0
359.256	0	0
359.469	0	0
359.682	0	0
359.895	0	0
360.108	0	0
360.321	0	0
360.534	0	0
360.747	0	0
360.96	0	0
361.173	0	0
361.386	0	0
361.599	0	0
361.812	0	0
362.025	0	0
362.238	0	0
362.45	0	0
362.663	0	0
362.876	0	0
363.089	0	0
363.301	0	0
363.514	0	0
363.727	0	0
363.939	0	0
364.152	0	0
364.364	0	0
364.577	0	0
364.789	0	0
365.002	0	0
365.214	0	0
365.427	0	0
365.639	0	0
365.852	0	0
366.064	0	0
366.276	0	0
366.489	0	0
366.701	0	0
366.913	0	0
367.125	0	0
367.338	0	0
367.55	0	0
367.762	0	0
367.974	0	0
368.186	0	0
368.398	0	0
368.61	0	0
368.822	0	0
369.034	0	0
369.246	0	0
369.458	0	0
369.67	0	0
369.882	0	0
370.094	0	0
370.306	0	0
370.518	0	0
370.73	0	0
370.941	0	0
371.153	0	0
371.365	0	0
371.577	0	0
371.788	0	0
372	0	0
372.212	0	0
372.423	0	0
372.635	0	0
372.846	0	0
373.058	0	0
373.269	0	0
373.481	0	0
373.692	0	0
373.904	0	0
374.115	0	0
374.327	0	0
374.538	0	0
374.749	0	0
374.961	0	0
375.172	0	0
375.383	0	0
375.594	0	0
375.805	0	0
376.017	0	0
376.228	0	0
376.439	0	0
376.65	0	0
376.861	0	0
377.072	0	0
377.283	0	0
377.494	0	0
377.705	0	0
377.916	0	0
378.127	0	0
378.338	0	0
378.549	0	0
378.76	0	0
378.971	0	0
379.181	0	0
379.392	0	0
379.603	0	0
379.814	0	0
380.024	0	0
380.235	0	0
380.446	0	0
380.656	0	0
380.867	0	0
381.078	0	0
381.288	0	0
381.499	0	0
381.709	0	0
381.92	0	0
382.13	0	0
382.34	0	0
382.551	0	0
382.761	0	0
382.972	0	0
383.182	0	0
383.392	0	0
383.603	0	0
383.813	0	0
384.023	0	0
384.233	0	0
384.443	0	0
384.654	0	0
384.864	0	0
385.074	0	0
385.284	0	0
385.494	0	0
385.704	0	0
385.914	0	0
386.124	0	0
386.334	0	0
386.544	0	0
386.754	0	0
386.964	0	0
387.173	0	0
387.383	0	0
387.593	0	0
387.803	0	0
388.013	0	0
388.222	0	0
388.432	0	0
388.642	0	0
388.851	0	0
389.061	0	0
389.271	0	0
389.48	0	0
389.69	0	0
389.899	0	0
390.109	0	0
390.318	0	0
390.528	0	0
390.737	0	0
390.947	0	0
391.156	0	0
391.365	0	0
391.575	0	0
391.784	0	0
391.993	0	0
392.202	0	0
392.412	0	0
392.621	0	0
392.83	0	0
393.039	0	0
393.248	0	0
393.457	0	0
393.666	0	0
393.876	0	0
394.085	0	0
394.294	0	0
394.503	0	0
394.711	0	0
394.92	0	0
395.129	0	0
395.338	0	0
395.547	0	0
395.756	0	0
395.965	0	0
396.173	0	0
396.382	0	0
396.591	0	0
396.8	0	0
397.008	0	0
397.217	0	0
397.426	0	0
397.634	0	0
397.843	0	0
398.051	0	0
398.26	0	0
398.468	0	0
398.677	0	0
398.885	0	0
399.094	0	0
399.302	0	0
399.51	0	0
399.719	0	0
399.927	0	0
400.135	0	0
400.344	0	0
400.552	0	0
400.76	0	0
400.968	0	0
401.176	0	0
401.385	0	0
401.593	0	0
401.801	0	0
402.009	0	0
402.217	0	0
402.425	0	0
402.633	0	0
402.841	0	0
403.049	0	0
403.257	0	0
403.465	0	0
403.673	0	0
403.88	0	0
404.088	0	0
404.296	0	0
404.504	0	0
404.712	0	0
404.919	0	0
405.127	0	0
405.335	0	0
405.542	0	0
405.75	0	0
405.958	0	0
406.165	0	0
406.373	0	0
406.58	0	0
406.788	0	0
406.995	0	0
407.203	0	0
407.41	0	0
407.617	0	0
407.825	0	0
408.032	36.386	37.0337
408.239	37.9939	34.9122
408.447	37.1929	37.4361
408.654	39.148	39.148
408.861	38.5756	41.2498
409.068	38.3576	39.822
409.276	40.7839	39.2597
409.483	42.103	37.2428
409.69	40.0055	39.0365
409.897	45.8871	38.9109
410.104	38.3658	39.4762
410.311	44.7295	39.7205
410.518	39.942	39.7002
410.725	42.1464	39.4812
410.932	43.5825	40.4576
411.139	45.852	39.5814
411.346	43.5257	42.3863
411.553	43.5981	39.8456
411.76	43.4767	40.7436
411.967	44.2773	40.3196
412.174	44.0612	42.4288
412.381	46.9216	41.7811
412.587	45.893	44.212
412.794	47.628	43.3091
413.001	45.4692	44.0873
413.208	46.0122	43.0727
413.414	46.2982	43.4701
413.621	47.2093	43.1091
413.828	47.4711	43.3135
414.034	46.4912	42.6685
414.241	46.5132	44.2748
414.447	47.3133	43.1235
414.654	48.3426	44.461
414.86	49.6662	44.8175
415.067	48.4853	43.6782
415.273	49.0449	44.8894
415.48	48.7967	44.475
415.686	49.0163	44.6984
415.893	50.1344	45.5727
416.099	49.3854	44.9168
416.305	49.5417	45.1284
416.512	50.0812	45.6829
416.718	50.3198	44.8729
416.924	51.1429	45.8787
417.131	50.6373	46.0897
417.337	51.6035	46.1771
417.543	51.1561	46.1131
417.749	50.9219	46.6559
417.955	51.7063	46.4906
418.161	52.2636	46.3715
418.367	51.8989	46.6035
418.574	52.0841	45.7341
418.78	51.925	46.5846
418.986	52.7443	47.1284
419.192	51.9952	47.1019
419.398	53.1998	46.9254
419.604	52.4479	47.4173
419.809	53.1132	47.0679
420.015	53.3616	46.9273
420.221	53.5287	46.7043
420.427	54.3472	47.6817
420.633	54.9042	47.9715
420.839	53.4815	47.8893
421.044	54.9761	47.6854
421.25	53.8844	47.3014
421.456	54.1563	47.2017
421.662	54.1841	48.0684
421.867	54.7249	48.2009
422.073	54.3656	48.6137
422.278	55.0728	48.1636
422.484	55.0132	48.3502
422.69	54.7208	47.8851
422.895	54.9143	47.9841
423.101	55.5858	48.6106
423.306	55.9074	48.2044
423.512	55.4372	48.2933
423.717	55.2825	48.339
423.922	55.4507	48.6609
424.128	56.0046	49.3331
424.333	55.8431	48.1859
424.539	56.305	49.0909
424.744	55.9374	48.1133
424.949	56.0714	47.9615
425.154	56.4675	49.0476
425.36	56.4215	49.243
425.565	56.6761	48.6484
425.77	56.4217	49.1984
425.975	56.7371	49.1826
426.18	56.928	49.274
426.385	56.4267	49.3391
426.591	57.1523	49.2136
426.796	56.6772	49.1615
427.001	57.2862	49.1862
427.206	57.3716	49.1479
427.411	57.2095	49.3172
427.616	57.165	49.4364
427.821	57.7051	49.752
428.026	57.4662	49.5654
428.23	57.913	49.6508
428.435	58.0899	49.9099
428.64	57.8893	49.8302
428.845	57.7604	49.7129
429.05	57.5393	49.5465
429.254	58.2678	49.7104
429.459	57.7522	49.936
429.664	58.4863	49.9331
429.869	58.4856	49.9937
430.073	58.7323	50.1508
430.278	58.4748	49.9778
430.483	58.4668	49.9481
430.687	58.1094	49.7862
430.892	58.6516	49.9255
431.096	58.7744	49.9497
431.301	58.7406	50.0724
431.505	59.1472	50.4984
431.71	58.9434	49.9646
431.914	59.3338	49.977
432.118	59.043	49.8984
432.323	59.3094	50.0805
432.527	59.3726	50.075
432.732	59.271	50.1918
432.936	59.4327	50.1173
433.14	59.1585	50.4159
433.344	59.6465	50.2065
433.549	59.7337	50.306
433.753	59.4985	50.1336
433.957	59.6711	50.5131
434.161	59.5579	49.9321
434.365	59.8037	50.5846
434.57	59.7886	50.3636
434.774	59.8703	50.3267
434.978	59.8574	50.3968
435.182	60.2414	50.1549
435.386	60.0689	50.2692
435.59	60.1495	50.3107
435.794	60.1222	50.3956
435.998	60.4846	50.2103
436.201	60.0877	50.275
436.405	60.4274	50.309
436.609	60.2041	50.2584
436.813	60.714	50.4918
437.017	60.5148	50.34
437.221	60.4961	50.3825
437.424	60.3491	50.3789
437.628	60.6276	50.4827
437.832	60.3604	50.6187
438.036	60.5846	50.331
438.239	60.5374	50.4864
438.443	60.4095	50.6004
438.646	60.3279	50.6085
438.85	60.5036	50.6787
439.054	60.2997	50.4168
439.257	60.1135	50.5354
439.461	60.1755	50.5949
439.664	60.2404	50.7723
439.868	60.1349	50.7635
440.071	60.005	50.5542
440.274	60.2227	50.8282
440.478	59.9267	50.6276
440.681	59.8774	50.7002
440.885	60.0333	50.7178
441.088	59.7602	50.6395
441.291	59.8144	50.6685
441.494	59.7591	50.6654
441.698	59.7841	50.6954
441.901	59.7397	50.6508
442.104	59.4651	50.5796
442.307	59.4455	50.8052
442.51	59.2853	50.7967
442.713	59.343	50.6793
442.916	59.0322	50.757
443.12	58.9264	50.7553
443.323	58.9112	50.752
443.526	58.7203	50.7411
443.729	58.7376	50.6018
443.932	58.363	50.6225
444.134	58.2836	50.8174
444.337	58.1304	50.7123
444.54	58.1002	50.7469
444.743	58.0016	50.5945
444.946	57.8222	50.7532
445.149	57.6671	50.7711
445.352	57.5885	50.6985
445.554	57.5303	50.6691
445.757	57.1869	50.6522
445.96	57.272	50.7496
446.162	57.172	50.5806
446.365	57.0586	50.7241
446.568	56.7422	50.6722
446.77	56.8846	50.6589
446.973	56.827	50.7714
447.175	56.8425	50.4824
447.378	56.6061	50.6387
447.58	56.4815	50.3871
447.783	56.3142	50.5019
447.985	56.5375	50.4489
448.188	56.2816	50.5822
448.39	56.2369	50.4521
448.593	56.0985	50.3333
448.795	56.1716	50.4567
448.997	56.1614	50.7254
449.2	56.4202	50.5326
449.402	56.4092	50.5144
449.604	56.147	50.4977
449.806	56.3304	50.4853
450.009	56.283	50.1746
450.211	56.3113	50.6595
450.413	56.48	50.4334
450.615	56.283	50.4546
450.817	56.177	50.4881
451.019	56.3842	50.3028
451.221	56.1575	50.3281
451.423	56.2501	50.4073
451.625	56.4622	50.4038
451.827	56.2449	50.395
452.029	56.5968	50.3916
452.231	56.5134	50.4082
452.433	56.6601	50.3544
452.635	56.5341	50.341
452.837	56.8882	50.1429
453.039	56.3886	50.3726
453.24	56.7129	50.1455
453.442	56.7131	50.2575
453.644	56.7754	50.2868
453.846	56.8309	50.1589
454.047	56.9001	50.2904
454.249	56.7062	49.972
454.451	56.5806	50.0634
454.652	56.9173	50.2999
454.854	56.9188	50.0769
455.056	56.5535	49.9963
455.257	56.9212	50.3596
455.459	56.5697	50.0912
455.66	56.793	49.9445
455.862	56.6771	49.9927
456.063	56.9252	50.0809
456.265	56.8806	50.2333
456.466	56.5352	50.2051
456.667	56.6922	49.9627
456.869	56.7022	50.037
457.07	56.4249	49.8987
457.271	56.6493	50.0232
457.473	56.5758	50.1275
457.674	56.5627	49.9644
457.875	56.3956	50.0583
458.076	56.4602	50.0243
458.277	56.0256	49.9928
458.479	56.4337	49.988
458.68	56.2693	50.1641
458.881	56.4483	50.0708
459.082	55.8888	49.7076
459.283	55.9869	49.5702
459.484	55.9375	49.6419
459.685	56.155	49.9499
459.886	56.0258	49.846
460.087	55.6664	49.8122
460.288	55.9693	49.9419
460.489	55.6182	49.805
460.69	55.5685	49.581
460.89	55.874	49.8009
461.091	55.8624	49.7795
461.292	55.7159	49.914
461.493	55.5489	49.7745
461.694	55.5442	49.7145
461.894	55.2383	49.8207
462.095	55.4301	49.506
462.296	55.2721	49.594
462.496	55.2091	49.6531
462.697	55.2652	49.7841
462.898	55.3061	49.4924
463.098	55.5324	49.8493
463.299	55.3966	49.4715
463.499	55.0558	49.1684
463.7	55.416	49.6215
463.9	55.3401	49.5151
464.101	55.3038	49.3696
464.301	55.2234	49.4176
464.501	55.1771	49.6934
464.702	55.2196	49.2168
464.902	55.4557	49.3481
465.103	55.573	49.5899
465.303	55.3395	49.6187
465.503	55.4999	49.4283
465.703	55.1542	49.5377
465.904	55.453	49.3464
466.104	55.2233	49.2313
466.304	55.3534	49.476
466.504	54.8864	49.1645
466.704	55.206	49.4206
466.904	55.3684	49.3212
467.104	55.1951	49.2528
467.304	55.5063	49.1443
467.504	55.1562	48.9662
467.704	55.2362	49.142
467.904	55.4951	49.2962
468.104	55.4395	49.255
468.304	55.3011	48.8229
468.504	55.4443	48.9918
468.704	54.9661	48.9806
468.904	55.5611	48.8074
469.104	55.0717	48.7698
469.304	55.1133	48.7138
469.503	55.1261	48.808
469.703	55.2518	48.7769
469.903	54.8608	49.014
470.103	54.9374	48.5598
470.302	54.8461	48.5377
470.502	55.1482	48.8663
470.701	54.9776	48.6884
470.901	55.1549	48.7783
471.101	55.0872	48.562
471.3	54.8671	48.7136
471.5	54.8504	48.54
471.699	54.8064	48.1796
471.899	54.8786	48.4225
472.098	54.8805	48.3768
472.298	54.7777	48.4675
472.497	54.6691	48.2474
472.696	54.4275	47.9451
472.896	54.5027	48.3539
473.095	54.4801	48.0671
473.294	54.755	48.4001
473.494	54.387	48.1466
473.693	54.8312	48.1864
473.892	54.3876	48.1433
474.091	54.4481	48.0622
474.29	54.0465	48.24
474.49	54.304	47.7527
474.689	54.2534	47.9228
474.888	54.3084	48.2062
475.087	53.7426	47.6712
475.286	53.9742	47.4727
475.485	53.8068	47.8906
475.684	54.1372	47.9923
475.883	53.9693	47.7542
476.082	53.7139	47.4519
476.281	53.3116	47.4421
476.48	53.7991	47.4059
476.678	53.5609	47.5268
476.877	53.4009	47.2379
477.076	53.0689	47.3259
477.275	53.4854	47.5136
477.474	53.2988	47.5998
477.672	53.2101	47.2506
477.871	53.27	47.4352
478.07	53.669	47.3523
478.269	52.906	47.0517
478.467	53.3506	47.0731
478.666	52.7366	46.9681
478.864	52.9731	46.9875
479.063	52.6349	46.7968
479.262	52.8602	46.823
479.46	52.8242	47.1893
479.659	52.854	47.0833
479.857	52.7784	46.5777
480.055	52.6256	46.6596
480.254	52.4483	46.4958
480.452	52.4123	46.6179
480.651	52.2002	46.4295
480.849	52.2184	46.5192
481.047	52.191	46.5183
481.246	52.1959	46.593
481.444	51.6738	46.4893
481.642	51.9164	46.3217
481.84	51.9784	46.0884
482.039	51.525	46.0692
482.237	51.6825	46.1495
482.435	51.639	46.2176
482.633	51.8092	46.0111
482.831	51.8748	46.0246
483.029	51.314	45.7582
483.227	51.2734	46.0619
483.425	51.4268	45.87
483.623	51.2843	45.6708
483.821	51.1992	45.7973
484.019	51.0664	45.5351
484.217	51.0333	45.6631
484.415	51.0405	45.4462
484.613	50.8936	45.4009
484.811	50.7837	45.5294
485.008	50.7357	45.4535
485.206	50.5869	45.3848
485.404	50.4699	45.3913
485.602	50.398	45.2677
485.799	50.4353	45.1688
485.997	50.3467	45.0134
486.195	49.9412	44.9833
486.392	50.1579	45.0552
486.59	50.2223	44.9511
486.788	50.077	44.8407
486.985	49.7325	44.813
487.183	49.6697	44.9274
487.38	49.724	44.5331
487.578	49.4497	44.5111
487.775	49.405	44.7278
487.973	49.3105	44.5608
488.17	49.1449	44.4555
488.367	49.3995	44.3862
488.565	49.1144	44.2635
488.762	48.848	44.0811
488.959	48.8495	44.3827
489.157	48.6335	44.0266
489.354	48.4394	44.0978
489.551	48.3305	44.0889
489.749	48.3586	44.1368
489.946	48.228	43.7047
490.143	48.1271	43.611
490.34	48.176	43.7299
490.537	47.9265	43.5797
490.734	48.0634	43.4102
490.931	47.7235	43.5148
491.128	47.6044	43.5474
491.325	47.2293	43.4914
491.522	47.2692	43.4461
491.719	47.4832	43.4409
491.916	47.1672	43.1707
492.113	47.1337	43.2519
492.31	46.9688	42.9135
492.507	46.8483	43.1168
492.704	46.8424	42.9769
492.901	46.6737	42.8289
493.097	46.5342	42.7831
493.294	46.3759	42.7068
493.491	46.1472	42.5047
493.688	46.2142	42.7143
493.884	46.1651	42.5476
494.081	45.7723	42.3356
494.278	45.8113	42.2916
494.474	45.746	42.4542
494.671	45.9054	42.018
494.867	45.6595	42.2637
495.064	45.5603	41.9289
495.26	45.1635	42.0185
495.457	45.3206	41.9519
495.653	44.9436	41.9099
495.85	44.8813	41.704
496.046	44.7819	41.5678
496.243	44.4767	41.6069
496.439	44.6816	41.7479
496.635	44.4261	41.5499
496.832	44.4604	41.4312
497.028	44.2583	41.4033
497.224	44.0928	41.3142
497.42	43.97	41.0296
497.617	43.8129	41.061
497.813	43.7751	40.9506
498.009	43.5322	40.9488
498.205	43.5555	41.1062
498.401	43.0373	40.9366
498.597	43.4185	40.809
498.793	43.2419	40.7013
498.989	43.0197	40.5654
499.185	42.8755	40.6517
499.381	42.8407	40.508
499.577	42.6833	40.2511
499.773	42.7004	40.206
499.969	42.3859	40.0182
500.165	42.4955	39.9637
500.361	42.0706	40.0813
500.557	42.0865	39.781
500.753	41.8805	40.0221
500.948	41.8478	39.8649
501.144	41.8331	39.9591
501.34	41.5582	39.7894
501.536	41.4403	39.6897
501.731	41.3328	39.5477
501.927	41.1591	39.2731
502.123	41.3517	39.4862
502.318	41.073	39.313
502.514	41.0033	39.1033
502.709	40.7287	39.2556
502.905	40.6946	38.9742
503.1	40.3486	38.9983
503.296	40.423	39.0631
503.491	40.4745	38.7639
503.687	40.1829	38.6496
503.882	40.125	38.7637
504.078	39.8529	38.3872
504.273	39.7178	38.4144
504.468	39.7174	38.3135
504.664	39.4414	38.2238
504.859	39.4207	38.271
505.054	39.2779	38.2216
505.249	39.2664	38.2012
505.445	38.9311	37.9454
505.64	38.9272	37.8957
505.835	38.9947	37.8494
506.03	38.8333	38.0026
506.225	38.5778	37.4589
506.42	38.6153	37.4907
506.615	38.371	37.4404
506.81	38.2992	37.3865
507.005	38.0987	37.4593
507.2	38.0573	37.2005
507.395	37.802	36.915
507.59	37.7769	37.0854
507.785	37.7591	37.0142
507.98	37.4501	36.953
508.175	37.5636	36.9217
508.37	37.4462	36.8106
508.564	37.2525	36.5508
508.759	37.2947	36.6078
508.954	36.8985	36.5863
509.149	36.7881	36.2702
509.343	36.8521	36.2938
509.538	36.7378	36.2146
509.733	36.4474	36.3107
509.927	36.2341	35.8601
510.122	36.2211	36.0454
510.317	35.9837	35.9981
510.511	36.0025	35.6618
510.706	35.8683	35.6971
510.9	35.8359	35.7266
511.095	35.6887	35.4654
511.289	35.6276	35.4949
511.484	35.5826	35.2839
511.678	35.2821	35.3794
511.872	35.1027	35.341
512.067	34.9155	35.2886
512.261	35.0354	35.119
512.455	34.9309	35.08
512.65	34.5961	34.993
512.844	34.5411	34.8161
513.038	34.5318	34.8755
513.232	34.1619	34.6504
513.427	34.2096	34.7758
513.621	34.0844	34.6055
513.815	34.1699	34.4888
514.009	33.9266	34.4914
514.203	33.9076	34.3149
514.397	33.6471	34.1403
514.591	33.4376	34.1091
514.785	33.3553	34.0712
514.979	33.3277	33.9894
515.173	33.065	33.8574
515.367	33.234	33.8504
515.561	33.0048	33.7434
515.755	32.9206	33.7608
515.949	32.9004	33.461
516.142	32.7934	33.5501
516.336	32.5174	33.4387
516.53	32.4453	33.4164
516.724	32.2221	33.2601
516.917	32.292	33.0611
517.111	32.2188	33.1186
517.305	32.0384	32.9541
517.499	31.8123	32.9827
517.692	31.8119	32.9482
517.886	31.6132	32.765
518.079	31.5991	32.6574
518.273	31.3297	32.6336
518.466	31.3939	32.5609
518.66	31.2656	32.5681
518.853	31.1652	32.4915
519.047	31.1084	32.2375
519.24	30.8755	32.2939
519.434	30.8178	32.0694
519.627	30.7152	31.9942
519.82	30.7523	32.091
520.014	30.5575	31.7512
520.207	30.4092	31.892
520.4	30.3412	31.7573
520.594	30.2053	31.5751
520.787	30.1432	31.62
520.98	29.8674	31.4598
521.173	29.9144	31.6773
521.366	29.7351	31.2368
521.56	29.6267	31.3919
521.753	29.5685	31.242
521.946	29.557	31.1371
522.139	29.2048	31.0745
522.332	29.0102	30.9661
522.525	29.2242	30.9482
522.718	28.9291	30.7758
522.911	28.8421	30.8464
523.104	28.87	30.5629
523.297	28.6229	30.5037
523.489	28.5912	30.4793
523.682	28.4779	30.3891
523.875	28.5274	30.3665
524.068	28.3404	30.2957
524.261	28.1817	30.106
524.453	28.1201	30.1426
524.646	27.9174	30.0059
524.839	27.8832	30.0202
525.031	27.9067	29.9646
525.224	27.7226	29.7491
525.417	27.5784	29.7031
525.609	27.4649	29.6002
525.802	27.4809	29.5064
525.995	27.3007	29.4169
526.187	27.307	29.4456
526.38	27.11	29.2136
526.572	26.9958	29.226
526.765	26.7876	29.0658
526.957	26.784	29.0161
527.149	26.555	29.147
527.342	26.5293	28.9894
527.534	26.5075	28.8239
527.726	26.4235	28.8673
527.919	26.3133	28.748
528.111	26.1199	28.5767
528.303	25.9993	28.5572
528.495	25.9467	28.4511
528.688	25.8661	28.4692
528.88	25.7922	28.2667
529.072	25.6665	28.2586
529.264	25.6173	28.126
529.456	25.5691	28.1626
529.648	25.355	28.1081
529.84	25.5178	28.0289
530.032	25.3028	27.9257
530.224	25.0604	27.9028
530.416	25.0498	27.7103
530.608	24.9626	27.736
530.8	24.9109	27.6601
530.992	24.7252	27.4966
531.184	24.755	27.4395
531.376	24.5275	27.3884
531.568	24.5005	27.2614
531.759	24.3188	27.304
531.951	24.3635	27.1876
532.143	24.1641	27.0677
532.335	24.0783	26.885
532.526	24.1288	26.9149
532.718	23.9915	26.807
532.91	23.8312	26.8428
533.101	23.821	26.6994
533.293	23.6171	26.6423
533.484	23.6025	26.6448
533.676	23.4455	26.4635
533.868	23.2664	26.3748
534.059	23.2102	26.4866
534.251	23.3541	26.3533
534.442	23.1476	26.3192
534.633	22.9817	26.1728
534.825	22.9351	25.9996
535.016	22.706	25.9468
535.208	22.6365	25.7393
535.399	22.6148	25.8926
535.59	22.6765	25.7671
535.781	22.5778	25.8524
535.973	22.3802	25.6102
536.164	22.4052	25.5688
536.355	22.2222	25.4723
536.546	22.1211	25.3743
536.737	22.1655	25.3326
536.929	22.0104	25.4262
537.12	21.7513	25.1938
537.311	21.9361	25.0659
537.502	21.7771	25.0022
537.693	21.6984	24.9646
537.884	21.5528	24.9503
538.075	21.417	24.8307
538.266	21.3977	24.6888
538.457	21.354	24.8156
538.648	21.0724	24.7872
538.838	21.161	24.5904
539.029	21.0058	24.3905
539.22	20.8999	24.4061
539.411	20.8733	24.4055
539.602	20.8856	24.2565
539.792	20.668	24.1218
539.983	20.7506	24.0962
540.174	20.4817	24.1416
540.365	20.5905	24.0534
540.555	20.3372	23.9286
540.746	20.3918	23.8809
540.936	20.1454	23.8446
541.127	20.0758	23.8402
541.317	20.0012	23.6536
541.508	20.1231	23.7353
541.698	19.9464	23.7104
541.889	19.7977	23.4757
542.079	19.7739	23.4427
542.27	19.7005	23.3363
542.46	19.6924	23.4024
542.651	19.691	23.317
542.841	19.4244	23.217
543.031	19.4226	23.1292
543.222	19.2086	23.0336
543.412	19.2969	23.0226
543.602	19.1084	23.0373
543.792	19.0968	22.922
543.982	19.069	22.8035
544.173	18.9331	22.8534
544.363	18.8599	22.7415
544.553	18.8041	22.6282
544.743	18.7069	22.732
544.933	18.7079	22.5841
545.123	18.5193	22.4472
545.313	18.5636	22.311
545.503	18.4066	22.3906
545.693	18.3519	22.2758
545.883	18.306	22.1387
546.073	18.246	22.1794
546.263	18.1755	22.0854
546.453	18.1086	21.9701
546.643	17.9361	21.9717
546.832	18.0086	21.9776
547.022	17.8429	21.8808
547.212	17.8357	21.738
547.402	17.7683	21.7346
547.591	17.6623	21.6511
547.781	17.6086	21.6321
547.971	17.4791	21.481
548.16	17.4326	21.5047
548.35	17.4161	21.462
548.54	17.3075	21.3931
548.729	17.1892	21.2505
548.919	17.0811	21.334
549.108	17.1469	21.2916
549.298	17.0364	21.2041
549.487	16.934	21.1789
549.677	16.9726	21.1268
549.866	16.751	20.9911
550.055	16.7379	20.8792
550.245	16.814	20.9279
550.434	16.6388	20.7325
550.623	16.6309	20.7658
550.813	16.5128	20.6288
551.002	16.4848	20.6084
551.191	16.3451	20.5971
551.381	16.3675	20.5026
551.57	16.3008	20.4462
551.759	16.2909	20.4331
551.948	16.1041	20.3859
552.137	16.0295	20.381
552.326	16.0259	20.2903
552.515	16.0295	20.2781
552.704	15.9359	20.15
552.893	15.958	20.1008
553.082	15.9059	20.119
553.271	15.8227	20.0042
553.46	15.7797	20.0601
553.649	15.6583	19.9127
553.838	15.462	19.8542
554.027	15.45	19.7658
554.216	15.4865	19.8534
554.405	15.414	19.8661
554.593	15.3682	19.7737
554.782	15.317	19.6598
554.971	15.1433	19.7054
555.16	15.1619	19.535
555.348	15.1585	19.4866
555.537	15.1286	19.4673
555.726	14.9636	19.4299
555.914	15.0233	19.3062
556.103	14.9715	19.4127
556.291	14.9338	19.3399
556.48	14.8439	19.2261
556.668	14.8711	19.2559
556.857	14.7322	19.0296
557.045	14.723	19.1474
557.234	14.6971	19.0458
557.422	14.5867	18.9078
557.611	14.5971	18.9842
557.799	14.5069	18.8928
557.987	14.5253	18.8941
558.176	14.3687	18.8213
558.364	14.2318	18.7778
558.552	14.2968	18.7447
558.74	14.304	18.653
558.929	14.3548	18.6335
559.117	14.0706	18.64
559.305	14.1121	18.6054
559.493	14.0687	18.5063
559.681	13.9916	18.4799
559.869	13.9724	18.4398
560.057	13.9132	18.3245
560.245	13.9511	18.3157
560.433	13.8756	18.4045
560.621	13.8826	18.3419
560.809	13.7846	18.312
560.997	13.6686	18.2917
561.185	13.7035	18.1522
561.373	13.641	18.0875
561.561	13.6057	18.0389
561.749	13.5149	18.0281
561.937	13.537	17.9656
562.124	13.4386	17.9426
562.312	13.4447	17.8724
562.5	13.4297	17.8575
562.688	13.4402	17.7995
562.875	13.3006	17.7849
563.063	13.2054	17.6162
563.251	13.2091	17.6878
563.438	13.2187	17.6861
563.626	13.179	17.6801
563.813	13.1831	17.6237
564.001	13.0588	17.6577
564.188	13.0902	17.5221
564.376	13.0282	17.4873
564.563	12.9833	17.4687
564.751	12.916	17.5011
564.938	12.9713	17.3123
565.126	12.887	17.3422
565.313	12.8471	17.2859
565.5	12.7846	17.2993
565.688	12.7641	17.2441
565.875	12.8062	17.1786
566.062	12.6692	17.118
566.249	12.6745	17.1106
566.437	12.6293	17.0518
566.624	12.642	17.1508
566.811	12.5251	17.0111
566.998	12.504	17.0262
567.185	12.4518	16.9607
567.372	12.5073	16.9242
567.559	12.4675	16.7881
567.746	12.417	16.8503
567.933	12.3693	16.8096
568.12	12.3222	16.8149
568.307	12.2882	16.8372
568.494	12.3209	16.6981
568.681	12.2755	16.6971
568.868	12.1253	16.7505
569.055	12.2287	16.5656
569.242	12.1858	16.6385
569.429	12.0347	16.5214
569.615	12.0234	16.5196
569.802	12.1038	16.554
569.989	12.0547	16.359
570.176	12.0427	16.3752
570.362	11.938	16.429
570.549	12.0554	16.3969
570.736	11.9372	16.2671
570.922	11.9358	16.3751
571.109	11.8205	16.1966
571.295	11.8015	16.2042
571.482	11.8572	16.2567
571.668	11.7975	16.1011
571.855	11.6736	16.2156
572.041	11.7048	16.0581
572.228	11.7166	15.9976
572.414	11.706	16.0958
572.601	11.5847	16.0438
572.787	11.5268	16.0533
572.973	11.5409	16.0066
573.16	11.5437	15.9049
573.346	11.517	15.9277
573.532	11.476	15.9231
573.718	11.4972	15.8993
573.905	11.4768	15.8365
574.091	11.3945	15.7541
574.277	11.4004	15.704
574.463	11.2765	15.7352
574.649	11.3576	15.6304
574.835	11.2821	15.6554
575.021	11.3581	15.6523
575.207	11.3412	15.5976
575.393	11.2708	15.6082
575.579	11.1545	15.6754
575.765	11.2746	15.4602
575.951	11.192	15.5408
576.137	11.2317	15.5131
576.323	11.1126	15.4558
576.509	11.1121	15.427
576.695	11.0991	15.4139
576.88	11.074	15.3321
577.066	10.9641	15.4312
577.252	11.0507	15.2971
577.438	10.9834	15.3227
577.623	11.0032	15.2033
577.809	10.9591	15.2489
577.995	11.0122	15.2322
578.18	11.0014	15.2613
578.366	10.8895	15.069
578.552	10.9717	15.1878
578.737	10.9024	15.0898
578.923	10.8209	15.1453
579.108	10.8433	15.0014
579.294	10.7263	15.0291
579.479	10.7202	15.0713
579.665	10.8037	15.004
579.85	10.715	14.9563
580.035	10.6661	15.0106
580.221	10.6683	14.941
580.406	10.6948	14.8668
580.591	10.6639	14.9245
580.777	10.6437	14.8813
580.962	10.7022	14.8391
581.147	10.5682	14.8231
581.332	10.552	14.7626
581.517	10.5179	14.7531
581.703	10.4979	14.7171
581.888	10.4586	14.6938
582.073	10.4581	14.6509
582.258	10.4235	14.6321
582.443	10.4611	14.6844
582.628	10.4082	14.5448
582.813	10.467	14.6562
582.998	10.3885	14.5309
583.183	10.437	14.46
583.368	10.3485	14.4625
583.553	10.3383	14.363
583.738	10.2895	14.5212
583.923	10.365	14.4615
584.107	10.1988	14.3879
584.292	10.2765	14.4078
584.477	10.1995	14.3631
584.662	10.2172	14.3777
584.846	10.2275	14.3873
585.031	10.1268	14.2512
585.216	10.2021	14.3094
585.4	10.2483	14.2301
585.585	10.1076	14.1437
585.77	10.2807	14.2612
585.954	10.0435	14.1794
586.139	10.1273	14.2687
586.323	10.0553	14.1259
586.508	10.0693	14.1528
586.692	10.0882	14.1026
586.877	10.0974	14.0928
587.061	10.0406	14.1151
587.246	10.0485	14.0567
587.43	9.95666	14.0247
587.614	10.0445	14.0033
587.799	9.98948	13.9527
587.983	9.95721	13.9626
588.167	9.90442	14.0086
588.351	9.89612	13.8772
588.536	9.94071	13.9316
588.72	9.89862	13.8953
588.904	9.8372	13.8388
589.088	9.8456	13.8106
589.272	9.90591	13.9102
589.456	9.96084	13.7069
589.641	9.78519	13.8558
589.825	9.76874	13.6945
590.009	9.72467	13.7721
590.193	9.77616	13.7443
590.377	9.77784	13.7562
590.561	9.74006	13.7342
590.745	9.71964	13.6605
590.928	9.70174	13.6267
591.112	9.67698	13.6383
591.296	9.67495	13.637
591.48	9.58394	13.6391
591.664	9.60674	13.4468
591.848	9.60254	13.6385
592.031	9.65367	13.4693
592.215	9.63314	13.4139
592.399	9.66968	13.4964
592.582	9.52566	13.3978
592.766	9.54116	13.4647
592.95	9.45132	13.3736
593.133	9.47062	13.4551
593.317	9.5344	13.419
593.5	9.53395	13.3385
593.684	9.50549	13.2749
593.867	9.48253	13.3115
594.051	9.43966	13.2725
594.234	9.41955	13.2789
594.418	9.44667	13.316
594.601	9.47435	13.3165
594.785	9.36419	13.3095
594.968	9.35011	13.249
595.151	9.26899	13.278
595.334	9.30013	13.2631
595.518	9.29944	13.2527
595.701	9.32555	13.1711
595.884	9.37391	13.1464
596.067	9.28586	13.1656
596.251	9.2426	13.1119
596.434	9.31846	13.035
596.617	9.16569	13.1323
596.8	9.23128	13.0874
596.983	9.24783	12.9963
597.166	9.17058	12.9889
597.349	9.15446	13.0136
597.532	9.15429	12.9984
597.715	9.11246	12.9505
597.898	9.14974	12.9712
598.081	9.06751	12.9404
598.264	8.99053	12.9204
598.447	9.0918	12.8955
598.63	9.07923	12.8649
598.812	9.11343	12.8936
598.995	9.05022	12.8112
599.178	8.99699	12.9291
599.361	9.08399	12.7755
599.543	8.93368	12.8483
599.726	9.02048	12.8137
599.909	8.91611	12.6824
600.091	9.01682	12.7336
600.274	8.86443	12.7031
600.457	8.88643	12.7332
600.639	8.8171	12.6551
600.822	8.86659	12.6423
601.004	8.88718	12.7102
601.187	8.7877	12.6276
601.369	8.84107	12.6683
601.552	8.83261	12.6583
601.734	8.88511	12.6333
601.917	8.8081	12.5944
602.099	8.80171	12.5347
602.281	8.78881	12.5543
602.464	8.72947	12.5401
602.646	8.80808	12.5362
602.828	8.75633	12.5567
603.01	8.702	12.5056
603.193	8.68314	12.4957
603.375	8.7444	12.5255
603.557	8.60081	12.4665
603.739	8.73728	12.4406
603.921	8.60242	12.4051
604.103	8.71366	12.4199
604.285	8.58993	12.3826
604.467	8.65718	12.3501
604.65	8.53742	12.2863
604.832	8.57503	12.2458
605.013	8.57649	12.3691
605.195	8.61421	12.3477
605.377	8.59867	12.3047
605.559	8.58709	12.2967
605.741	8.54599	12.3617
605.923	8.53151	12.3233
606.105	8.53112	12.2467
606.287	8.46749	12.2422
606.468	8.4282	12.2569
606.65	8.47569	12.1974
606.832	8.37252	12.2411
607.013	8.46707	12.1551
607.195	8.41975	12.3125
607.377	8.43987	12.2136
607.558	8.42577	12.1693
607.74	8.42807	12.2085
607.922	8.44915	12.0676
608.103	8.40657	12.1172
608.285	8.37157	12.1005
608.466	8.36744	12.0385
608.648	8.3563	12.0612
608.829	8.35903	12.0854
609.01	8.31758	12.0536
609.192	8.30979	12.0365
609.373	8.3019	12.0539
609.555	8.37053	12.0947
609.736	8.23375	12.021
609.917	8.27305	12.0875
610.099	8.30704	12.0642
610.28	8.35748	11.9875
610.461	8.2086	11.9865
610.642	8.1648	11.9661
610.823	8.24044	12.0254
611.004	8.2425	12.0205
611.186	8.20945	11.951
611.367	8.21885	11.9027
611.548	8.14657	12.0059
611.729	8.26409	12.0124
611.91	8.18263	11.9239
612.091	8.18587	11.9747
612.272	8.22132	11.8791
612.453	8.17736	11.9112
612.634	8.16771	11.8482
612.815	8.15795	11.9193
612.995	8.10584	11.8754
613.176	8.09999	11.8918
613.357	8.07413	11.9025
613.538	8.12838	11.9218
613.719	8.06259	11.9041
613.899	8.14649	11.8662
614.08	8.16344	11.8029
614.261	8.1394	11.8147
614.441	8.12086	11.8472
614.622	8.10412	11.7598
614.803	8.06003	11.8317
614.983	8.10856	11.7804
615.164	8.06231	11.8484
615.344	8.14605	11.7899
615.525	8.03402	11.807
615.705	8.05846	11.82
615.886	8.05715	11.8003
616.066	8.06236	11.8875
616.247	8.15424	11.8541
616.427	8.12634	11.8028
616.607	8.11451	11.7814
616.788	8.09853	11.82
616.968	8.09322	11.7897
617.148	8.13608	11.7089
617.329	8.05415	11.7855
617.509	8.03005	11.722
617.689	8.0397	11.7748
617.869	8.07235	11.7907
618.049	8.04534	11.8191
618.23	8.06243	11.7111
618.41	8.07983	11.7205
618.59	8.1114	11.7729
618.77	8.05774	11.8143
618.95	8.08909	11.7408
619.13	8.10374	11.8262
619.31	8.08201	11.7694
619.49	8.06886	11.7967
619.67	8.14764	11.8006
619.85	8.02394	11.7758
620.03	8.09754	11.8088
620.209	8.09043	11.8429
620.389	8.1174	11.7987
620.569	8.09632	11.7714
620.749	8.1274	11.7549
620.929	8.19125	11.8155
621.108	8.14326	11.753
621.288	8.09347	11.8583
621.468	8.18404	11.793
621.647	8.1421	11.8398
621.827	8.19226	11.8081
622.007	8.12224	11.8489
622.186	8.20367	11.8412
622.366	8.19467	11.7714
622.545	8.23201	11.8615
622.725	8.17953	11.9364
622.904	8.18115	11.9187
623.084	8.15745	11.9247
623.263	8.33619	11.9759
623.443	8.21519	11.9571
623.622	8.33778	11.8965
623.802	8.29858	11.9268
623.981	8.29834	11.9758
624.16	8.26939	11.9548
624.339	8.30212	11.9602
624.519	8.30146	12.0101
624.698	8.44461	12.0765
624.877	8.36587	11.9083
625.056	8.47911	11.9818
625.235	8.38931	12.066
625.415	8.39085	11.9539
625.594	8.34638	12.0174
625.773	8.38343	11.9317
625.952	8.44751	12.0857
626.131	8.49588	11.9767
626.31	8.46416	12.0424
626.489	8.51737	12.1376
626.668	8.5124	12.2073
626.847	8.57045	12.144
627.026	8.57164	12.1238
627.205	8.62386	12.1741
627.383	8.59577	12.3029
627.562	8.63353	12.2317
627.741	8.70039	12.2724
627.92	8.67176	12.11
628.099	8.69411	12.1629
628.277	8.79695	12.2947
628.456	8.74173	12.2645
628.635	8.7834	12.4104
628.813	8.71406	12.3635
628.992	8.835	12.3713
629.171	8.81256	12.504
629.349	8.99715	12.3728
629.528	8.86101	12.5517
629.706	8.95905	12.5009
629.885	9.00768	12.4202
630.063	8.9281	12.5182
630.242	9.02874	12.5979
630.42	9.07042	12.5927
630.599	9.08441	12.5961
630.777	9.12568	12.5078
630.955	9.13494	12.6153
631.134	9.20034	12.7028
631.312	9.04951	12.6119
631.49	9.19596	12.6304
631.669	9.24672	12.8058
631.847	9.38348	12.744
632.025	9.3491	12.843
632.203	9.35605	12.8576
632.381	9.34968	12.8231
632.56	9.42226	12.8572
632.738	9.37591	12.8555
632.916	9.50282	12.9624
633.094	9.58554	12.9975
633.272	9.56281	12.9316
633.45	9.54042	12.9145
633.628	9.70272	12.919
633.806	9.78101	13.1385
633.984	9.80079	13.0041
634.162	9.81538	13.1315
634.339	9.83451	13.1665
634.517	9.76331	13.166
634.695	9.86619	13.213
634.873	9.9296	13.2346
635.051	9.9849	13.3033
635.229	10.0503	13.3255
635.406	10.0855	13.3706
635.584	10.0888	13.4545
635.762	10.1972	13.4398
635.939	10.1612	13.4205
636.117	10.3181	13.5192
636.295	10.2482	13.5813
636.472	10.3257	13.4908
636.65	10.2585	13.6364
636.827	10.5275	13.6815
637.005	10.5099	13.6732
637.182	10.6652	13.7173
637.36	10.5739	13.7988
637.537	10.601	13.831
637.715	10.6415	13.832
637.892	10.8024	13.9146
638.069	10.8247	13.989
638.247	10.9244	13.9924
638.424	10.9196	13.9981
638.601	11.0353	14.0132
638.778	11.0571	14.0162
638.956	11.2036	14.0657
639.133	11.1359	14.148
639.31	11.1717	14.1806
639.487	11.3427	14.3645
639.664	11.2947	14.371
639.841	11.3495	14.3408
640.019	11.5841	14.3641
640.196	11.5162	14.4872
640.373	11.6483	14.5445
640.55	11.6828	14.6033
640.727	11.759	14.6154
640.904	11.7674	14.677
641.081	11.9554	14.6479
641.257	12.0112	14.7996
641.434	11.9331	14.7114
641.611	12.1115	14.8208
641.788	12.1775	14.8927
641.965	12.3578	14.9217
642.142	12.2661	15.0252
642.318	12.4429	15.0297
642.495	12.4523	15.0951
642.672	12.5392	15.2243
642.848	12.5993	15.1239
643.025	12.6178	15.214
643.202	12.8148	15.2336
643.378	12.8143	15.2539
643.555	12.8825	15.3791
643.731	13.0194	15.3982
643.908	13.1071	15.5957
644.084	13.1812	15.5206
644.261	13.215	15.5819
644.437	13.2208	15.619
644.614	13.2109	15.637
644.79	13.4947	15.8498
644.967	13.5536	15.9513
645.143	13.5643	15.903
645.319	13.7775	15.9646
645.496	13.8145	16.1911
645.672	13.766	15.8956
645.848	13.7911	16.153
646.024	14.0911	16.0993
646.201	14.1754	16.198
646.377	14.2199	16.2511
646.553	14.3309	16.2836
646.729	14.4791	16.3539
646.905	14.5992	16.4249
647.081	14.7113	16.5535
647.257	14.6757	16.5467
647.433	14.8159	16.4623
647.609	14.9184	16.8907
647.785	14.9397	16.7243
647.961	15.1987	16.8478
648.137	15.2782	16.9166
648.313	15.2759	17.0607
648.489	15.4339	17.0699
648.665	15.3973	17.1007
648.841	15.6666	17.2212
649.016	15.656	17.1208
649.192	15.9133	17.3282
649.368	15.8458	17.4377
649.544	16.0075	17.4493
649.719	16.0821	17.415
649.895	16.1766	17.5848
650.071	16.3532	17.7446
650.246	16.5097	17.8395
650.422	16.6199	17.8847
650.597	16.6331	17.8712
650.773	16.7275	17.9073
650.949	17.0197	18.0509
651.124	16.9532	18.1073
651.3	17.1752	18.1954
651.475	17.2297	18.208
651.65	17.4758	18.3759
651.826	17.3277	18.4611
652.001	17.5334	18.3585
652.177	17.5639	18.523
652.352	17.8347	18.6809
652.527	17.8057	18.687
652.702	18.0284	18.8018
652.878	18.3105	18.9118
653.053	18.3081	18.9604
653.228	18.3607	19.0513
653.403	18.5798	19.0965
653.578	18.608	19.2645
653.754	18.9141	19.2653
653.929	18.8945	19.3137
654.104	18.9922	19.3504
654.279	19.2711	19.5687
654.454	19.2962	19.5045
654.629	19.2185	19.6444
654.804	19.5997	19.7617
654.979	19.7521	19.7347
655.154	19.8033	19.9394
655.329	19.8201	19.9861
655.503	20.1088	20.0642
655.678	20.0852	20.2641
655.853	20.3049	20.267
656.028	20.5115	20.3593
656.203	20.4137	20.5103
656.377	20.63	20.5523
656.552	20.8599	20.5386
656.727	20.9801	20.7928
656.902	21.0619	20.7408
657.076	21.2414	20.9812
657.251	21.4256	21.0035
657.425	21.4496	21.0722
657.6	21.7143	21.1956
657.775	21.9116	21.2498
657.949	21.9849	21.3717
658.124	22.1381	21.5016
658.298	22.5203	21.5283
658.472	22.4178	21.5797
658.647	22.6249	21.6721
658.821	22.6255	21.8892
658.996	22.9115	21.9634
659.17	23.1528	21.994
659.344	23.1374	22.0297
659.519	23.3681	22.2615
659.693	23.5304	22.2135
659.867	23.6672	22.3932
660.041	23.9135	22.4103
660.216	23.9769	22.4823
660.39	23.9914	22.5903
660.564	24.1909	22.8256
660.738	24.435	22.8165
660.912	24.7228	23.0068
661.086	24.9009	23.0778
661.26	25.027	23.2924
661.434	25.0404	23.1742
661.608	25.0303	23.2746
661.782	25.4233	23.4665
661.956	25.5288	23.6742
662.13	25.9156	23.6949
662.304	25.9829	23.8203
662.478	26.0308	23.7927
662.652	26.1481	24.0524
662.826	26.5203	24.0594
662.999	26.6812	24.2857
663.173	26.7116	24.4329
663.347	26.8785	24.4219
663.521	27.0929	24.6103
663.694	27.2872	24.744
663.868	27.3951	24.9646
664.042	27.7162	24.8958
664.215	27.7734	24.8773
664.389	27.9131	25.0379
664.562	28.0909	25.2259
664.736	28.1684	25.2251
664.909	28.7472	25.5706
665.083	28.6431	25.5959
665.256	28.8839	25.8246
665.43	29.006	25.7971
665.603	29.355	25.8999
665.777	29.3344	26.0263
665.95	29.5177	25.9646
666.123	29.8133	26.4409
666.297	29.9942	26.2373
666.47	30.2816	26.6258
666.643	30.5332	26.5265
666.816	30.5222	26.72
666.99	30.756	26.8
667.163	30.9662	26.8864
667.336	31.2288	26.8962
667.509	31.2348	27.2188
667.682	31.7817	27.2833
667.855	31.7781	27.4245
668.029	32.0476	27.4932
668.202	32.0442	27.6763
668.375	32.3685	27.8951
668.548	32.5559	28.0989
668.721	32.8438	28.1095
668.893	32.9323	28.2835
669.066	33.1678	28.4957
669.239	33.2163	28.6399
669.412	33.6216	28.6725
669.585	33.6298	28.79
669.758	34.0771	28.9719
669.931	34.2992	29.1654
670.103	34.2166	29.0052
670.276	34.3969	29.273
670.449	34.65	29.5524
670.622	34.9397	29.7606
670.794	35.2885	29.598
670.967	35.2777	29.8058
671.139	35.7889	29.8869
671.312	35.7045	30.1949
671.485	36.1899	30.2196
671.657	36.3563	30.5016
671.83	36.5602	30.7421
672.002	36.7629	30.8565
672.175	36.8618	30.9741
672.347	37.0055	30.9852
672.519	37.1635	31.0218
672.692	37.5856	31.1492
672.864	37.9013	31.3509
673.037	37.7738	31.5426
673.209	38.1541	31.7457
673.381	38.0043	31.7339
673.553	39.025	32.0068
673.726	38.9491	32.2603
673.898	39.0831	32.3441
674.07	39.1367	32.5481
674.242	39.6856	32.4626
674.414	40.1571	32.7991
674.587	40.2846	32.8238
674.759	40.1575	33.1796
674.931	40.3282	32.9914
675.103	40.3808	33.3225
675.275	40.9554	33.443
675.447	41.2223	33.5655
675.619	41.6443	33.6393
675.791	41.6379	33.7521
675.963	41.9786	33.8574
676.134	42.0366	33.8635
676.306	42.1629	34.1329
676.478	42.8252	34.3589
676.65	43.1339	34.6543
676.822	43.055	34.7551
676.994	43.1701	34.9224
677.165	43.4381	35.4219
677.337	43.9439	35.2404
677.509	43.9758	35.2701
677.68	44.3135	35.7713
677.852	44.4137	35.8717
678.024	44.9821	36.0462
678.195	45.1656	36.0813
678.367	45.4571	36.2785
678.538	45.7034	36.4726
678.71	45.9435	36.6221
678.881	46.1634	36.75
679.053	46.5491	36.9428
679.224	46.6016	37.0689
679.396	47.1284	37.607
679.567	47.2273	37.4297
679.738	47.4299	37.7398
679.91	47.4934	38.0139
680.081	48.2791	37.9067
680.252	47.6255	38.1282
680.424	48.6857	38.2477
680.595	48.6406	38.4534
680.766	48.7652	38.6145
680.937	49.286	39.0899
681.108	49.3999	39.1287
681.28	49.5401	39.2653
681.451	50.1098	39.2836
681.622	50.3404	39.5227
681.793	50.7172	40.0563
681.964	50.9113	40.0039
682.135	51.0201	40.0608
682.306	51.6424	40.1932
682.477	51.4825	40.4044
682.648	51.944	40.7538
682.819	52.0816	40.985
682.99	52.6603	41.1766
683.16	52.4639	41.3955
683.331	53.2543	41.6679
683.502	53.4296	41.6618
683.673	53.4835	42.0862
683.844	53.8437	42.232
684.014	54.0452	42.4954
684.185	54.5878	42.5716
684.356	54.6854	42.8518
684.526	54.7963	42.5848
684.697	55.0797	43.3637
684.868	55.8152	43.213
685.038	55.5135	43.3909
685.209	56.1271	43.7923
685.379	56.4612	43.6306
685.55	56.7319	43.9743
685.72	57.0727	44.2907
685.891	57.1375	44.3239
686.061	57.338	44.3896
686.232	57.9379	45.1215
686.402	58.1138	44.8942
686.572	57.8673	45.0512
686.743	59.0677	45.1523
686.913	59.0893	45.9722
687.083	58.9337	46.2384
687.254	59.4999	46.3484
687.424	60.2364	46.3531
687.594	60.4069	46.2415
687.764	60.2495	46.8975
687.934	61.2436	46.8296
688.104	60.572	47.0983
688.275	61.4281	47.1575
688.445	61.6855	47.5667
688.615	61.8019	47.5709
688.785	61.9825	47.8307
688.955	62.296	48.4125
689.125	62.5961	48.3893
689.295	62.8291	48.0839
689.465	63.0534	48.6599
689.635	63.6586	48.5928
689.805	64.0605	49.3123
689.974	64.3648	49.4322
690.144	64.7203	49.52
690.314	64.697	49.7067
690.484	65.4993	50.3
690.654	65.1862	50.2235
690.823	65.8236	50.6721
690.993	66.1158	50.7165
691.163	66.0077	51.1706
691.332	66.573	51.2544
691.502	67.0029	51.4224
691.672	67.174	51.8066
691.841	67.38	51.7923
692.011	68.1619	52.0027
692.18	67.9721	52.6932
692.35	68.3607	52.3378
692.519	68.4345	52.5705
692.689	68.6062	53.1454
692.858	68.8147	53.0068
693.027	69.5636	52.9719
693.197	68.8592	53.7379
693.366	69.7787	53.4086
693.536	70.2206	54.0518
693.705	70.862	53.5959
693.874	70.7637	54.4104
694.043	71.2927	54.7402
694.213	71.2549	54.8508
694.382	71.4625	54.7353
694.551	71.5871	55.2385
694.72	72.3046	55.6187
694.889	72.55	55.7503
695.058	73.4709	55.85
695.228	73.4127	56.6948
695.397	74.0517	56.3254
695.566	73.4882	56.3315
695.735	73.3119	56.8644
695.904	74.4338	57.3466
696.073	74.5063	57.5988
696.242	75.2898	57.8674
696.41	75.2577	57.4722
696.579	75.6041	58.2138
696.748	75.6208	58.0455
696.917	75.428	58.492
697.086	76.8019	58.8378
697.255	76.9022	58.834
697.423	77.1352	59.1566
697.592	77.0457	59.5347
697.761	77.7827	59.9127
697.929	77.816	60.0256
698.098	78.1911	59.9352
698.267	78.3585	60.8359
698.435	79.085	60.702
698.604	79.4315	60.8806
698.772	79.209	61.1093
698.941	79.462	61.2337
699.109	80.1046	61.1195
699.278	79.6264	62.1224
699.446	81.1853	62.0927
699.615	80.6575	62.0373
699.783	80.6095	62.874
699.952	80.746	62.8058
700.12	81.55	62.9505
700.288	82.2773	63.3995
700.457	82.2007	63.6798
700.625	82.305	63.6771
700.793	82.8259	64.495
700.961	83.3362	63.6497
701.13	83.4803	64.39
701.298	82.9097	64.5099
701.466	84.4367	64.3065
701.634	84.3145	65.5051
701.802	84.8416	65.8189
701.97	85.1514	65.986
702.138	85.0311	65.6756
702.306	85.8314	66.2352
702.474	85.9908	66.0349
702.642	86.5276	66.9034
702.81	86.5328	66.4567
702.978	86.2158	67.325
703.146	85.7727	66.7547
703.314	87.2043	67.5487
703.482	87.5222	67.8723
703.65	87.3953	68.7361
703.818	87.6279	67.7727
703.985	87.7209	68.4013
704.153	88.126	68.78
704.321	88.1281	69.5764
704.488	89.3773	69.2502
704.656	89.7577	69.1005
704.824	89.8549	68.8604
704.991	90.4621	69.6208
705.159	90.2365	69.5103
705.327	90.0061	70.7471
705.494	90.7297	70.4749
705.662	91.7976	70.4321
705.829	91.1203	71.0318
705.997	91.5453	71.9046
706.164	92.2006	71.5614
706.332	92.5589	72.5661
706.499	91.7858	71.4675
706.666	91.8397	71.6868
706.834	92.795	73.2343
707.001	92.7266	72.5599
707.168	93.3445	72.8938
707.336	93.4118	73.8265
707.503	93.2144	73.6912
707.67	93.1233	73.2707
707.837	94.4669	73.3866
708.004	94.1862	73.8484
708.172	94.4724	73.8428
708.339	94.5409	74.5889
708.506	95.1701	74.2335
708.673	94.1925	74.4044
708.84	95.49	75.0226
709.007	95.7543	75.4534
709.174	96.158	75.8669
709.341	96.564	76.0527
709.508	96.4044	75.9237
709.675	97.5125	76.1606
709.842	97.119	77.2106
710.009	97.6448	76.7041
710.175	97.8152	76.2994
710.342	96.9948	75.9215
710.509	97.7597	77.5825
710.676	97.3163	77.8434
710.843	98.8697	78.7134
711.009	98.998	77.5003
711.176	98.816	78.0111
711.343	100.2	78.0092
711.509	98.164	77.9495
711.676	100.513	79.8952
711.843	100.448	79.3593
712.009	101.068	80.0869
712.176	100.639	78.6022
712.342	99.5702	79.2184
712.509	100.917	79.4947
712.675	100.684	80.4393
712.842	102.245	80.4812
713.008	102.151	80.9804
713.174	101.939	80.3321
713.341	102.486	81.0015
713.507	101.712	81.8228
713.673	102.854	81.3009
713.84	102.198	81.9535
714.006	103.756	82.4226
714.172	103.513	81.0215
714.339	102.798	82.1218
714.505	103.664	81.9335
714.671	103.422	82.3537
714.837	104.05	82.4346
715.003	103.988	83.6603
715.169	104.261	83.5558
715.335	103.46	82.7434
715.501	106.641	84.5611
715.667	105.735	84.1064
715.833	105.459	84.1226
715.999	103.861	83.7453
716.165	107.498	84.7442
716.331	103.559	84.365
716.497	107.572	85.8487
716.663	106.826	84.6888
716.829	107.862	84.9014
716.995	105.342	84.4463
717.161	107.542	85.4272
717.326	106.979	85.1575
717.492	107.516	85.818
717.658	106.498	87.2094
717.823	106.911	85.5316
717.989	106.425	86.1544
718.155	110.732	87.0774
718.32	105.842	86.7264
718.486	109.398	85.7207
718.651	107.354	87.9756
718.817	109.384	87.9852
718.983	108.332	88.4457
719.148	107.599	85.9233
719.314	108.692	88.5816
719.479	108.623	86.4493
719.644	108.589	89.3451
719.81	109.922	87.8291
719.975	108.598	87.6939
720.141	111.071	88.7301
720.306	111.184	88.554
720.471	110.232	87.8138
720.636	110.925	90.7316
720.802	111.384	88.9134
720.967	110.872	88.9801
721.132	111.255	89.6371
721.297	112.273	91.8608
721.462	110.407	88.9708
721.628	112.004	90.0586
721.793	111.255	89.0104
721.958	111.071	89.8644
722.123	109.895	88.5004
722.288	111.625	90.6167
722.453	111.629	88.4782
722.618	113.133	91.9407
722.783	112.724	90.2428
722.948	112.226	90.4369
723.112	111.935	92.657
723.277	113.485	91.5317
723.442	114.052	91.5936
723.607	112.873	91.0625
723.772	114.579	93.268
723.937	114.26	92.119
724.101	114.469	93.4425
724.266	113.235	90.9036
724.431	114.064	91.2697
724.595	112.244	92.3925
724.76	115.84	91.7667
724.925	112.208	93.8232
725.089	114.015	94.0789
725.254	113.791	93.8467
725.418	117.555	95.0375
725.583	113.918	93.5578
725.747	115.483	94.819
725.912	114.19	93.9758
726.076	114.592	92.7477
726.241	114.859	95.1138
726.405	117.052	93.6595
726.57	115.454	95.1339
726.734	115.93	95.2641
726.898	115.968	96.7538
727.062	117.073	88.9826
727.227	115.765	95.357
727.391	114.5	96.58
727.555	115.161	94.8134
727.719	117.378	95.6031
727.884	115.144	97.7461
728.048	118.925	96.1829
728.212	117.977	97.1537
728.376	117.24	94.1874
728.54	117.753	97.8334
728.704	120.69	98.1013
728.868	117.572	96.5494
729.032	121.128	96.5874
729.196	118.03	100.199
729.36	118.934	95.4773
729.524	115.454	96.3698
729.688	121.492	99.0186
729.852	117.863	95.4541
730.015	120.383	97.3946
730.179	117.074	97.08
730.343	120.176	97.469
730.507	119.445	100.262
730.671	120.206	98.6782
730.834	118.456	99.4683
730.998	122.565	100.157
731.162	118.108	101.696
731.325	119.746	99.8426
731.489	119.992	98.6347
731.652	118.099	95.4216
731.816	122.681	102.575
731.98	123.503	100.22
732.143	119.063	99.9874
732.307	122.568	99.1838
732.47	119.625	101.561
732.633	122.472	99.5975
732.797	120.428	100.942
732.96	120.863	100.16
733.124	124.793	104.545
733.287	122.143	98.635
733.45	120.872	99.4623
733.614	122.359	102.749
733.777	124.387	103.516
733.94	123.639	101.35
734.103	120.765	103.483
734.266	125.012	102.641
734.43	120.359	98.3093
734.593	120.473	99.3094
734.756	125.135	104.422
734.919	123.739	101.601
735.082	125.24	105.901
735.245	125.244	100.623
735.408	121.763	104.625
735.571	127.682	102.77
735.734	123.828	105.327
735.897	125.798	103.241
736.06	125.46	106.668
736.223	128.363	106.332
736.386	126.623	107.795
736.549	126.523	104.247
736.711	125.473	106.833
736.874	129.175	105.559
737.037	126.962	107.636
737.2	128.103	107.348
737.362	123.379	103.68
737.525	124.648	102.539
737.688	121.516	105.941
737.85	125.575	105.269
738.013	125.244	109.155
738.176	125.591	105.335
738.338	128.451	107.289
738.501	124.286	107.481
738.663	124.18	105.258
738.826	129.815	108.96
738.988	123.057	106.039
739.151	129.541	109.695
739.313	130.738	107.535
739.475	132.148	106.83
739.638	127.64	109.158
739.8	130.628	106.524
739.962	127.556	106.617
740.125	128.161	106.235
740.287	128.491	108.999
740.449	129.108	109.322
740.611	129.556	110.866
740.774	129.485	105.597
740.936	128.819	110.523
741.098	127.304	106.786
741.26	129.253	107.996
741.422	129.893	110.672
741.584	129.921	110.966
741.746	134.405	115.857
741.908	131.417	112.331
742.07	135.63	111.286
742.232	129.623	108.617
742.394	134.896	113.729
742.556	128.944	109.648
742.718	131.122	113.567
742.88	134.586	113.113
743.042	136.915	113.106
743.203	132.206	113.247
743.365	133.447	114.522
743.527	137.821	114.288
743.689	138.974	115.428
743.85	133.212	113.07
744.012	134.611	110.775
744.174	139.075	118.141
744.335	138.502	114.267
744.497	132.641	110.209
744.658	135.226	115.059
744.82	134.409	115.472
744.982	133.207	112.97
745.143	131.863	115.259
745.305	136.654	113.428
745.466	137.071	117.957
745.627	138.348	116.962
745.789	136.147	117.59
745.95	141.042	117.64
746.112	137.909	112.954
746.273	136.846	115.886
746.434	140.579	116.485
746.596	139.704	116.795
746.757	142.944	122.914
746.918	136.67	114.645
747.079	136.748	115.698
747.24	139.536	117.432
747.402	136.281	117.873
747.563	142.557	117.287
747.724	135.012	111.403
747.885	140.51	120.635
748.046	138.839	118.514
748.207	141.093	114.333
748.368	132.49	118.544
748.529	137.724	119.481
748.69	142.701	124.279
748.851	139.95	118.982
749.012	139.503	117.262
749.173	137.841	114.064
749.334	140.068	122.112
749.494	144.585	120.592
749.655	139.93	118.543
749.816	138.74	117.46
749.977	140.631	117.515
750.137	143.238	119.147
750.298	139	115.017
750.459	139.231	121.599
750.62	140.277	118.587
750.78	140.003	118.053
750.941	143.941	122.567
751.101	137.247	119.095
751.262	139.269	122.128
751.422	137.9	117.055
751.583	142.458	121.003
751.743	141.448	122.233
751.904	137.599	120.279
752.064	143.346	119.297
752.225	146.15	124.563
752.385	144.385	124
752.545	142.639	122.305
752.706	141.447	123.855
752.866	142.606	125.871
753.026	145.075	123.463
753.187	143.512	121.85
753.347	144.61	121.997
753.507	141.391	121.664
753.667	145.371	125.822
753.827	142.79	125.371
753.988	150.08	126.834
754.148	146.202	124.191
754.308	145.705	121.856
754.468	145.685	125.715
754.628	146.714	120.074
754.788	142.921	123.93
754.948	147.981	120.666
755.108	145.285	126.02
755.268	143.216	123.13
755.428	145.397	121.966
755.587	144.881	120.908
755.747	145.617	123.001
755.907	139.403	119.533
756.067	139.991	128.202
756.227	147.993	130.35
756.386	151.384	131.077
756.546	143.062	124.612
756.706	142.778	124.866
756.866	147.34	122.533
757.025	142.102	123.674
757.185	147.543	123.722
757.344	145.376	123.085
757.504	143.297	126.38
757.664	143.226	124.726
757.823	149.429	123.844
757.983	148.5	132.728
758.142	154.587	133.026
758.302	151.477	126.2
758.461	150.902	126.724
758.62	150.432	128.364
758.78	155.83	128.126
758.939	152.709	134.552
759.098	145.768	124.46
759.258	144.641	124.782
759.417	147.03	126.933
759.576	147.081	125.812
759.735	151.745	128.873
759.895	146.832	124.028
760.054	148.818	132.041
760.213	150.994	134.364
760.372	156.893	135.125
760.531	150.015	126.237
760.69	147.413	126.518
760.849	151.52	126.463
761.008	151.259	133.781
761.167	152.953	132.47
761.326	156.766	125.768
761.485	151.544	130.438
761.644	145.695	125.306
761.803	152.524	129.531
761.962	148.151	123.583
762.121	152.176	131.857
762.28	161.527	132.581
762.439	153.034	130.38
762.597	149.829	128.682
762.756	144.957	126.367
762.915	148.578	124.104
763.073	146.314	126.298
763.232	153.971	131.703
763.391	151.812	129.64
763.549	155.393	139.595
763.708	148.374	128.018
763.867	154.657	133.326
764.025	154.919	132.808
764.184	147.732	130.493
764.342	155.922	129.546
764.501	150.424	128.927
764.659	0	0
764.818	151.17	125.244
764.976	154.05	133.71
765.134	0	0
765.293	0	0
765.451	0	0
765.609	0	0
765.768	0	0
765.926	148.248	124.228
766.084	0	0
766.242	0	0
766.4	0	0
766.559	0	0
766.717	0	0
766.875	0	0
767.033	0	0
767.191	0	0
767.349	0	0
767.507	0	0
767.665	0	0
767.823	0	0
767.981	0	0
768.139	0	0
768.297	0	0
768.454	0	0
768.612	0	0
768.77	0	0
768.928	0	0
769.086	0	0
769.243	0	0
769.401	0	0
769.559	0	0
769.716	0	0
769.874	0	0
770.031	0	0
770.189	0	0
770.347	0	0
770.504	0	0
770.662	0	0
770.819	0	0
770.977	0	0
771.134	0	0
771.291	0	0
771.449	0	0
771.606	0	0
771.763	0	0
771.921	0	0
772.078	0	0
772.235	0	0
772.393	0	0
772.55	0	0
772.707	0	0
772.864	0	0
773.021	0	0
773.178	0	0
773.335	0	0
773.492	0	0
773.649	0	0
773.806	0	0
773.963	0	0
774.12	0	0
774.277	0	0
774.434	0	0
774.591	0	0
774.748	0	0
774.905	0	0
775.061	0	0
775.218	0	0
775.375	0	0
775.532	0	0
775.688	0	0
775.845	0	0
776.002	0	0
776.158	0	0
776.315	0	0
776.471	0	0
776.628	0	0
776.784	0	0
776.941	0	0
777.097	0	0
777.254	0	0
777.41	0	0
777.567	0	0
777.723	0	0
777.879	0	0
778.036	0	0
778.192	0	0
778.348	0	0
778.505	0	0
778.661	0	0
778.817	0	0
778.973	0	0
779.129	0	0
779.285	0	0
779.442	0	0
779.598	0	0
779.754	0	0
779.91	0	0
780.066	0	0
780.222	0	0
780.378	0	0
780.533	0	0
780.689	0	0
780.845	0	0
781.001	0	0
781.157	0	0
781.313	0	0
781.468	0	0
781.624	0	0
781.78	0	0
781.936	0	0
782.091	0	0
782.247	0	0
782.403	0	0
782.558	0	0
782.714	0	0
782.869	0	0
783.025	0	0
783.18	0	0
783.336	0	0
783.491	0	0
783.647	0	0
783.802	0	0
783.957	0	0
784.113	0	0
784.268	0	0
784.423	0	0
784.578	0	0
784.734	0	0
784.889	0	0
785.044	0	0
785.199	0	0
785.354	0	0
785.51	0	0
785.665	0	0
785.82	0	0
785.975	0	0
786.13	0	0
786.285	0	0
786.44	0	0
786.595	0	0
786.75	0	0
786.905	0	0
787.059	0	0
787.214	0	0
787.369	0	0
787.524	0	0
787.679	0	0
787.833	0	0
787.988	0	0
788.143	0	0
788.297	0	0
788.452	0	0
788.607	0	0
788.761	0	0
788.916	0	0
789.07	0	0
789.225	0	0
789.379	0	0
789.534	0	0
789.688	0	0
789.843	0	0
789.997	0	0
790.151	0	0
790.306	0	0
790.46	0	0
790.614	0	0
790.769	0	0
790.923	0	0
791.077	0	0
791.231	0	0
791.385	0	0
791.54	0	0
791.694	0	0
791.848	0	0
792.002	0	0
792.156	0	0
792.31	0	0
792.464	0	0
792.618	0	0
792.772	0	0
792.926	0	0
793.08	0	0
793.233	0	0
793.387	0	0
793.541	0	0
793.695	0	0
793.849	0	0
794.002	0	0
794.156	0	0
794.31	0	0
794.463	0	0
794.617	0	0
794.771	0	0
794.924	0	0
795.078	0	0
795.231	0	0
795.385	0	0
795.538	0	0
795.692	0	0
795.845	0	0
795.999	0	0
796.152	0	0
796.305	0	0
796.459	0	0
796.612	0	0
796.765	0	0
796.919	0	0
797.072	0	0
797.225	0	0
797.378	0	0
797.531	0	0
797.685	0	0
797.838	0	0
797.991	0	0
798.144	0	0
798.297	0	0
798.45	0	0
798.603	0	0
798.756	0	0
798.909	0	0
799.062	0	0
799.214	0	0
799.367	0	0
799.52	0	0
799.673	0	0
799.826	0	0
799.979	0	0
800.131	0	0
800.284	0	0
800.437	0	0
800.589	0	0
800.742	0	0
800.895	0	0
801.047	0	0
801.2	0	0
801.352	0	0
801.505	0	0
801.657	0	0
801.81	0	0
801.962	0	0
802.115	0	0
802.267	0	0
802.419	0	0
802.572	0	0
802.724	0	0
802.876	0	0
803.028	0	0
803.181	0	0
803.333	0	0
803.485	0	0
803.637	0	0
803.789	0	0
803.941	0	0
804.094	0	0
804.246	0	0
804.398	0	0
804.55	0	0
804.702	0	0
804.854	0	0
805.005	0	0
805.157	0	0
805.309	0	0
805.461	0	0
805.613	0	0
805.765	0	0
805.917	0	0
806.068	0	0
806.22	0	0
806.372	0	0
806.523	0	0
806.675	0	0
806.827	0	0
806.978	0	0
807.13	0	0
807.281	0	0
807.433	0	0
807.584	0	0
807.736	0	0
807.887	0	0
808.039	0	0
808.19	0	0
808.342	0	0
808.493	0	0
808.644	0	0
808.796	0	0
808.947	0	0
809.098	0	0
809.249	0	0
