#Changer LED: 1
#Wavelength [nm]	White Std. spectrum	Dark specetrum	Sample spectrum0[s]	Sample spectrum1200.64[s]
380.024	24.359	-1.3936	6.28928	4.48792	
380.235	24.0726	0.212775	6.23495	5.44961	
380.446	25.8356	1.47851	7.00214	4.51747	
380.656	23.6623	-1.06036	4.42613	5.36231	
380.867	23.9448	-1.26076	5.74302	4.65229	
381.078	23.2686	-1.52359	5.18022	5.02979	
381.288	24.8582	-0.582091	1.73037	5.49647	
381.499	25.6991	-0.085982	5.8627	6.86455	
381.709	24.5232	1.36082	6.04342	7.63199	
381.92	24.2125	-0.703188	4.43198	4.3471	
382.13	24.7094	-1.06368	4.97327	4.9011	
382.34	24.3	-0.881052	5.65326	3.948	
382.551	24.6559	-1.37396	5.96071	5.64702	
382.761	23.3842	-1.77791	6.12225	7.01183	
382.972	24.0508	-0.630439	5.98823	4.87289	
383.182	24.168	0.944647	4.90718	6.20661	
383.392	23.3131	1.14517	3.25489	3.26234	
383.603	24.0415	-1.31873	5.29706	3.60638	
383.813	23.2213	-1.20583	4.40553	4.40553	
384.023	23.1875	-0.574898	4.74519	4.01516	
384.233	22.1743	-0.610637	4.40874	5.67011	
384.443	24.4986	-2.05062	4.69888	4.55492	
384.654	22.8696	0.135698	4.55643	4.52628	
384.864	23.3144	-2.23452	4.68561	4.6557	
385.074	22.0316	-0.656185	4.33022	4.7497	
385.284	23.0552	-0.204895	4.4881	3.65664	
385.494	22.4729	-0.169103	5.365	4.76217	
385.704	23.8658	-2.18176	4.91802	5.30035	
385.914	22.5033	0.400731	5.04031	6.01691	
386.124	22.6759	-1.63558	4.53518	3.83532	
386.334	23.2634	-0.702258	6.78849	4.03635	
386.544	21.6136	1.91177	6.55784	4.47613	
386.754	22.9226	0.679647	3.45884	4.51803	
386.964	22.4129	-1.55916	6.34647	5.96259	
387.173	22.786	-2.71913	4.14521	4.69786	
387.383	22.5216	1.52078	5.45253	4.50842	
387.593	23.2688	0.406519	2.91044	3.41063	
387.803	23.0175	-2.12767	6.04891	5.9563	
388.013	22.2591	0.456058	3.81802	5.12071	
388.222	23.4861	-1.55462	5.16683	4.98882	
388.432	22.7069	-1.40818	6.45415	5.57404	
388.642	23.542	0.42102	2.57056	5.80598	
388.851	21.7427	1.48646	3.76217	5.49197	
389.061	22.3699	-0.218798	5.36258	4.22483	
389.271	23.2349	2.15072	5.16174	5.11414	
389.48	22.538	-2.37196	6.6905	5.17338	
389.69	23.2237	0.0612762	6.48594	4.73519	
389.899	22.8647	-0.984646	4.06755	4.42423	
390.109	22.8668	-0.295841	4.67894	5.13952	
390.318	23.1861	-1.14488	6.17188	7.23344	
390.528	23.7159	-1.34997	4.21597	4.73854	
390.737	22.9443	-0.0261027	5.94678	7.31224	
390.947	22.5187	-1.10394	5.5933	4.6768	
391.156	22.9696	-1.36818	4.03671	5.40606	
391.365	22.9029	0.0347937	3.77048	3.45385	
391.575	24.1271	-0.295292	4.07387	6.13455	
391.784	22.9584	-0.701747	4.98211	6.25277	
391.993	24.1792	1.51716	4.99248	5.49877	
392.202	23.6081	-0.260767	4.93719	4.78305	
392.412	23.6562	0.353463	4.13581	4.08753	
392.621	22.8156	-2.38798	5.87305	4.16339	
392.83	23.5019	-0.0779355	5.95889	5.72913	
393.039	23.0136	-0.363783	4.43988	6.40489	
393.248	23.9109	0.75235	5.26357	5.89773	
393.457	23.9854	0.269596	6.37407	4.73678	
393.666	22.6484	-0.748565	6.15796	4.04979	
393.876	24.5296	-1.56019	4.24833	4.27722	
394.085	23.8252	-0.72038	5.87666	6.44418	
394.294	24.2637	1.38001	5.58991	5.78207	
394.503	24.955	0.712248	5.19853	3.97569	
394.711	25.482	0.945724	6.6189	5.87925	
394.92	26.2543	-0.8412	5.06727	5.35121	
395.129	25.3377	0.123814	5.76503	7.40881	
395.338	23.9991	1.62168	6.78401	6.18999	
395.547	25.6211	-1.06086	6.38894	6.32951	
395.756	25.7831	-1.27094	5.09855	6.11767	
395.965	26.4282	-0.09713	8.01234	5.00838	
396.173	25.8691	-2.01451	7.02504	5.3661	
396.382	26.5047	-1.29743	6.92435	6.95377	
396.591	26.8665	-0.124095	6.75784	7.28613	
396.8	27.5299	-0.796541	6.253	7.11815	
397.008	26.6898	2.49771	6.40245	8.53978	
397.217	27.4943	3.36209	6.27531	6.96081	
397.426	26.8685	1.23144	6.58849	6.20478	
397.634	27.5844	-0.652305	7.03536	5.72479	
397.843	27.3407	-1.94331	5.18097	7.58519	
398.051	28.6664	-1.95819	6.06949	7.96986	
398.26	28.4866	-0.93694	7.72315	9.09613	
398.468	28.8134	0.658953	7.41097	7.11008	
398.677	29.107	0.0997746	7.98802	6.84817	
398.885	28.5973	-0.272962	6.74217	7.95533	
399.094	31.1426	-0.856468	7.12205	8.00281	
399.302	30.8994	-0.163537	7.99756	7.32282	
399.51	30.8661	-1.03859	8.86444	9.31996	
399.719	30.4406	-0.126949	10.0985	7.72456	
399.927	30.2494	1.53532	10.5425	8.41683	
400.135	31.3447	0.603134	9.22978	9.56486	
400.344	32.6125	-1.47159	9.88978	9.46324	
400.552	31.8084	-0.594464	10.5083	9.83762	
400.76	31.9238	-1.47804	8.631	8.35729	
400.968	33.0679	1.78424	8.0611	8.54909	
401.176	33.2181	-2.30859	9.56905	8.78242	
401.385	34.6712	-1.06976	11.4535	9.1457	
401.593	34.2643	1.64976	9.24291	8.81989	
401.801	35.5129	-0.997553	11.0166	11.091	
402.009	36.3589	0.889903	10.6365	10.5154	
402.217	36.214	0.163823	11.0672	11.4615	
402.425	35.9042	-0.804905	10.2708	9.03484	
402.633	35.0378	-2.53976	8.35968	8.55691	
402.841	38.4554	-2.01299	12.2412	10.881	
403.049	37.8901	-0.243812	12.0852	11.8745	
403.257	39.0434	-0.948532	11.4812	12.7013	
403.465	39.8921	-1.78314	13.2675	11.7144	
403.673	39.1184	-0.68032	13.3379	12.5621	
403.88	41.5436	0.327882	12.8613	12.2409	
404.088	41.848	1.63448	14.0796	15.1456	
404.296	41.277	1.87623	14.5791	13.6941	
404.504	43.236	0.061365	14.6019	12.0597	
404.712	45.655	-0.37688	16.1503	13.1411	
404.919	45.6841	1.96313	16.4932	16.6095	
405.127	46.5112	0.460593	15.5762	15.5182	
405.335	47.5438	-1.71866	18.0445	17.152	
405.542	49.2237	0.76912	18.0268	15.8375	
405.75	48.5515	0.54137	17.8051	17.0603	
405.958	50.3481	-0.919756	17.711	15.6103	
406.165	51.3623	2.26172	17.0753	16.6201	
406.373	52.985	-0.110474	18.9959	19.0808	
406.58	55.0068	3.46533	22.9139	18.5576	
406.788	55.1124	-0.0506315	22.6548	19.1106	
406.995	55.6759	-1.99203	21.0774	20.7412	
407.203	58.0449	1.8383	23.425	24.1525	
407.41	58.3435	-0.780936	22.9746	21.771	
407.617	61.1505	2.36093	25.0609	21.3902	
407.825	61.2032	1.31763	24.7542	23.8925	
408.032	63.7831	-2.6356	24.9624	22.4012	
408.239	64.9258	-2.54901	25.1201	24.9831	
408.447	67.4156	-0.393572	27.8698	25.1094	
408.654	68.1357	-0.925624	28.8008	29.4834	
408.861	69.1628	0.628308	26.7724	26.0652	
409.068	72.1256	-0.365625	30.2304	29.0929	
409.276	74.3074	-1.42385	29.7445	28.9895	
409.483	76.0349	0.356059	32.6927	28.8624	
409.69	77.4523	0.643291	33.0035	32.9231	
409.897	79.5389	-0.404038	36.4173	32.8618	
410.104	81.6531	-0.367987	34.9348	34.0015	
410.311	83.5303	0.959383	39.2041	36.2727	
410.518	87.465	-0.761186	37.9298	35.8947	
410.725	89.0097	1.39177	39.5652	35.7694	
410.932	92.0061	-0.189915	40.4572	37.9514	
411.139	93.2782	-1.19354	43.289	39.9165	
411.346	96.4893	-0.926649	42.9923	41.3432	
411.553	98.5011	0.440404	46.9974	40.103	
411.76	100.912	-0.655675	46.2537	43.4177	
411.967	105.663	-0.96624	47.0055	44.7198	
412.174	107.443	-0.889813	48.7437	43.9722	
412.381	109.925	0.85147	49.5504	48.4667	
412.587	112.476	-0.160965	53.0161	48.877	
412.794	115.21	-1.8313	54.5107	50.0222	
413.001	119.917	0.673089	54.9919	51.3715	
413.208	123.913	0.626596	57.7921	53.5638	
413.414	125.694	-0.40372	59.9918	56.437	
413.621	129.116	-0.97268	59.6855	56.8486	
413.828	132.198	1.38415	63.9785	58.5831	
414.034	136.927	-0.948245	66.3544	62.2074	
414.241	140.078	-1.45654	67.8403	62.4794	
414.447	143.989	-0.407216	71.4941	64.6317	
414.654	146.688	0.385463	71.3888	66.8539	
414.86	151.912	-2.1946	74.8738	69.4504	
415.067	154.76	0.681532	77.2178	70.6771	
415.273	162.326	-0.581409	79.6152	72.4672	
415.48	164.434	-0.361593	79.6709	74.1968	
415.686	170.749	-1.10969	85.9467	77.2907	
415.893	175.421	-0.549367	88.4682	80.4409	
416.099	180.259	2.16808	93.4659	82.6757	
416.305	185.439	-0.385276	95.745	88.1905	
416.512	190.85	-0.0680609	97.6573	88.8346	
416.718	196.329	0.671818	100.576	91.6441	
416.924	200.667	0.925875	103.324	95.5458	
417.131	207.045	-0.0903898	108.111	95.0047	
417.337	212.07	2.8921	110.137	99.1339	
417.543	217.178	0.55766	113.351	102.423	
417.749	222.637	0.902155	115.458	103.981	
417.955	229.149	1.30792	118.615	106.438	
418.161	235.874	-0.256344	123.1	112.369	
418.367	240.301	1.22976	126.182	115.268	
418.574	246.607	-1.08412	129.199	118.282	
418.78	255.406	1.00026	133.85	122.483	
418.986	258.882	2.15062	135.866	124.723	
419.192	266.27	0.264622	139.97	129.788	
419.398	274.395	0.212052	146.836	129.998	
419.604	281.917	-0.440662	149.749	135.466	
419.809	289.017	0.6827	153.42	139.792	
420.015	296.311	-0.9697	157.829	141.591	
420.221	304.995	0.411209	165.21	147.467	
420.427	312.795	-0.297849	166.826	150.635	
420.633	320.048	-0.0229004	171.697	153.504	
420.839	330.137	1.15038	176.907	161.442	
421.044	338.554	-0.67178	184.075	166.696	
421.25	346.696	0.250772	184.7	166.918	
421.456	354.069	0.875805	192.39	174.747	
421.662	364.439	-0.726782	197.672	176.965	
421.867	370.326	-0.725561	201.785	182.08	
422.073	382.971	2.25133	209.728	186.807	
422.278	393.188	0.737401	214.043	195.276	
422.484	400.263	-0.859147	221.202	196.655	
422.69	410.738	-0.473896	226.693	203.202	
422.895	422.257	-0.965228	232.459	206.796	
423.101	431.238	-0.935357	238.83	214.118	
423.306	440.852	0.207442	246.756	217.534	
423.512	453.706	0.270745	254.513	226.742	
423.717	464.319	-0.869483	257.713	230.577	
423.922	477.027	1.5216	262.73	235.182	
424.128	482.489	0.238342	270.134	239.15	
424.333	501.494	-0.705467	279.543	250.368	
424.539	507.574	0.871709	284.91	254.619	
424.744	520.38	4.28971	291.226	258.751	
424.949	536.276	-0.255377	300.62	265.744	
425.154	548.442	0.317601	311.174	275.153	
425.36	560.388	0.789584	315.454	279.897	
425.565	577.101	1.20283	324.153	286.671	
425.77	587.789	0.488996	329.444	295.964	
425.975	604.067	-0.358423	342.468	300.756	
426.18	620.526	-1.57537	352.109	310.281	
426.385	637.544	1.14589	360.039	316.1	
426.591	650.041	0.203394	369.205	324.902	
426.796	666.348	-0.0858968	380.062	335.109	
427.001	680.343	0.671288	391.21	345.001	
427.206	697.731	1.35424	400.487	352.971	
427.411	715.258	1.65048	410.184	359.626	
427.616	732.517	-0.830393	418.471	371.938	
427.821	748.194	0.476975	429.473	376.823	
428.026	762.99	1.32176	435.289	389.909	
428.23	781.906	2.41187	449.427	395.518	
428.435	799.12	-1.88397	462.638	405.496	
428.64	815.998	0.875626	471.712	415.196	
428.845	838.02	0.999211	479.373	423.887	
429.05	848.628	0.300492	489.661	428.766	
429.254	873.861	0.525496	505.238	444.703	
429.459	886.366	0.061355	511.105	449.955	
429.664	916.509	-0.356206	529.435	465.499	
429.869	929.593	-0.0537355	537.452	473.481	
430.073	944.219	0.0305476	548.615	484.21	
430.278	965.547	2.57601	561.823	489.988	
430.483	987.693	0.758236	571.978	503.13	
430.687	1007.27	-1.85913	586.758	514.106	
430.892	1029.62	0.99773	600.603	523.607	
431.096	1049.83	-0.255883	610.752	533.209	
431.301	1069.58	1.98723	628.674	546.31	
431.505	1090.02	0.0373409	639.388	557.935	
431.71	1122.1	-0.920003	657.194	574.419	
431.914	1142.09	-0.245974	670.734	581.587	
432.118	1171.22	-1.09462	685.045	597.649	
432.323	1192.21	-0.496873	700.302	608.665	
432.527	1215.63	1.77953	717.591	621.28	
432.732	1248.62	0.869962	734.128	639.267	
432.936	1271.37	0.901076	748.376	650.992	
433.14	1303.05	0.358209	768.15	664.538	
433.344	1328.72	-1.92187	782.513	681.833	
433.549	1361.61	-0.399865	802.498	697.734	
433.753	1388.78	0.476614	819.667	711.514	
433.957	1422.08	2.96435	841.694	728.361	
434.161	1451.56	2.28954	862.798	749.089	
434.365	1479.2	1.88719	876.446	758.187	
434.57	1503.07	3.07411	895.109	774.576	
434.774	1532.21	1.75614	905.48	785.325	
434.978	1564.83	2.63567	927.679	803.908	
435.182	1596.88	3.52868	950.042	821.499	
435.386	1629.13	2.58704	973.629	842.04	
435.59	1661.16	3.55495	988.514	854.873	
435.794	1691.31	5.04824	1009.01	871.596	
435.998	1726.51	2.12477	1029.78	889.375	
436.201	1772.78	3.7618	1051.55	910.364	
436.405	1792.57	3.44207	1071.03	925.333	
436.609	1833.17	1.48385	1098.21	942.731	
436.813	1869.81	0.0686384	1121.42	966.69	
437.017	1902.59	-0.0341298	1139.12	986.54	
437.221	1945	1.48777	1164.82	1002.42	
437.424	1978.39	1.29912	1185.6	1021.81	
437.628	2015.91	-0.583283	1212.75	1044.35	
437.832	2056.41	1.21145	1230.84	1056.91	
438.036	2086.45	2.45089	1250.24	1078.83	
438.239	2132.3	1.19976	1277.23	1100.41	
438.443	2167.14	0.0134571	1299.73	1124.77	
438.646	2196.14	-1.415	1316.39	1136.53	
438.85	2235.36	1.09866	1342.31	1154.56	
439.054	2261.08	-0.244665	1352.06	1170.06	
439.257	2298.49	-1.03061	1377.09	1187.77	
439.461	2327.24	2.11395	1398.3	1202.82	
439.664	2359.96	1.18317	1416.86	1219.95	
439.868	2390.11	-1.25943	1431.06	1240.42	
440.071	2411.49	-0.723753	1447.35	1250.2	
440.274	2434.71	1.14494	1463.18	1266.27	
440.478	2459.95	0.939902	1481.46	1279.71	
440.681	2487.39	0.0259156	1492	1290.85	
440.885	2509.27	1.04549	1501.59	1301.74	
441.088	2523.5	-1.09856	1510.03	1307.9	
441.291	2543.81	-0.275925	1526.73	1319.36	
441.494	2555.14	1.70453	1527.61	1329.32	
441.698	2564.85	-0.248013	1535.4	1325.23	
441.901	2590.85	1.28235	1549.02	1348.03	
442.104	2598.66	-0.0826782	1554.03	1350.13	
442.307	2606.29	1.03438	1557.21	1353.61	
442.51	2613.2	-0.0760461	1563.89	1359.34	
442.713	2619.66	-1.25384	1563.62	1366.06	
442.916	2621.68	2.3159	1562.23	1361.86	
443.12	2623.09	0.668883	1561.08	1362.85	
443.323	2611.63	0.899316	1553.5	1360.35	
443.526	2606.09	-0.620886	1549.62	1353.34	
443.729	2602.12	2.57359	1546.37	1356.47	
443.932	2593.62	-0.257007	1537.77	1347.73	
444.134	2585.65	0.313191	1530.61	1343.58	
444.337	2568.96	0.156205	1523.88	1334.93	
444.54	2550.01	0.287034	1510.73	1330.87	
444.743	2524.17	0.155358	1494.38	1311.8	
444.946	2504.88	0.378331	1479.6	1305.82	
445.149	2493.02	-0.51022	1471.09	1298.53	
445.352	2467.82	0.328972	1455.59	1284.49	
445.554	2445.75	-0.285506	1439.76	1279.18	
445.757	2423.14	0.278815	1420.71	1261.11	
445.96	2394.26	-0.991901	1407.54	1246.71	
446.162	2373.26	-1.11174	1395.67	1233.27	
446.365	2337.14	1.2559	1370.72	1215.66	
446.568	2311.73	0.0433603	1353.57	1204.56	
446.77	2286.34	0.427703	1339.18	1186.76	
446.973	2248.22	-0.67381	1309.36	1166.56	
447.175	2220.21	-0.878173	1293.67	1150.6	
447.378	2183.35	1.02536	1272.72	1136.11	
447.58	2153.37	0.643698	1256.03	1116.62	
447.783	2126.78	-0.0620978	1235.38	1103.07	
447.985	2087.39	0.644243	1214.59	1087.48	
448.188	2062.58	0.397441	1201.02	1066.82	
448.39	2021.64	0.557581	1177.62	1049.17	
448.593	1993.47	0.719845	1156.15	1035.78	
448.795	1961.57	-0.769259	1137.6	1020.95	
448.997	1926.65	0.967334	1122.74	998.128	
449.2	1894.65	0.428006	1103.23	985.97	
449.402	1876.12	-0.448605	1089.9	973.779	
449.604	1840.37	0.229796	1069.18	954.696	
449.806	1825.76	-0.481102	1061.94	949.637	
450.009	1796.61	0.361385	1041.23	932.937	
450.211	1764.68	1.42539	1025.79	920.2	
450.413	1743.5	-0.112217	1011.93	906.297	
450.615	1723.71	0.205708	1002.29	897.174	
450.817	1702.13	0.374192	989.307	884.179	
451.019	1684.75	1.11874	981.253	872.15	
451.221	1665	1.72273	965.81	862.489	
451.423	1647.43	-0.91375	960.113	852.257	
451.625	1628.08	1.10824	948.642	847.586	
451.827	1607.08	0.380457	934.546	832.862	
452.029	1596.11	1.61238	929.829	830.075	
452.231	1582.72	0.175955	919.981	819.707	
452.433	1566.2	1.75171	914.502	808.793	
452.635	1548.74	0.615156	901.613	803.67	
452.837	1535.81	0.125645	894.467	797.909	
453.039	1523.64	0.214245	884.306	788.421	
453.24	1503.62	-0.301713	880.653	776.143	
453.442	1492.46	0.466397	873.87	775.843	
453.644	1479.67	-0.314993	864.502	764.482	
453.846	1469.81	1.09804	858.711	756.879	
454.047	1454.89	1.14815	849.016	748.899	
454.249	1452.28	-0.780113	848.067	748.64	
454.451	1439.94	0.937595	840.404	743.118	
454.652	1431.75	2.08642	837.297	735.47	
454.854	1421.69	0.48847	829.874	732.264	
455.056	1418.01	-0.261173	826.265	728.102	
455.257	1404.79	-0.18431	820.557	723.508	
455.459	1400.62	0.0510361	815.537	721.779	
455.66	1397.78	1.03114	812.599	719.86	
455.862	1380.57	0.197842	807.793	712.318	
456.063	1370.76	-1.45141	800.45	708.527	
456.265	1362.58	0.965434	793.951	697.258	
456.466	1347.27	-0.254828	788.474	691.533	
456.667	1344.32	-0.51195	783.314	690.31	
456.869	1330.59	-0.1532	772.293	685.692	
457.07	1319.67	-0.133939	766.989	678.037	
457.271	1312.8	0.950474	764.487	675.968	
457.473	1300.76	1.99263	757.119	670.857	
457.674	1293.24	0.543716	748.872	665.673	
457.875	1283.78	0.0766915	746.096	660.521	
458.076	1275.12	1.92578	740.984	654.868	
458.277	1267.11	-0.627059	734.625	650.484	
458.479	1253.59	-1.05394	728.105	643.194	
458.68	1246.44	0.762902	723.235	640.214	
458.881	1237.97	1.11106	713.194	634.457	
459.082	1225.32	0.941679	710.186	630.901	
459.283	1217.17	0.813468	702.54	620.531	
459.484	1209.25	-1.26596	700.516	621.366	
459.685	1195.99	0.467832	691.843	614.789	
459.886	1186.12	1.56246	684.679	604.72	
460.087	1179.56	1.05182	679.247	604.764	
460.288	1165.82	-0.115055	672.168	597.915	
460.489	1161.55	-0.0962772	671.394	595.849	
460.69	1151.36	1.82313	661.51	586.836	
460.89	1138.58	-1.21573	653.312	586.084	
461.091	1127.75	0.830614	650.673	579.028	
461.292	1118.9	1.80245	642.961	572.844	
461.493	1109.65	-0.0575723	636.152	567.769	
461.694	1100.58	1.209	632.97	563.521	
461.894	1088.33	2.32188	623.283	557.135	
462.095	1078.76	-0.0636102	616.114	551.21	
462.296	1063.85	-0.607225	610.027	543.696	
462.496	1056.23	-0.246095	600.848	538.461	
462.697	1046.01	0.750278	595.94	534.509	
462.898	1039.81	0.295548	593.333	528.92	
463.098	1027.72	0.237968	587.308	522.409	
463.299	1021.73	-0.381628	584.4	522.776	
463.499	1011.56	0.627436	574.531	514.458	
463.7	1001.75	0.0310632	572.915	509.857	
463.9	993.69	-0.0434742	567.607	505.771	
464.101	986.269	1.63834	562.048	505.046	
464.301	976.945	-0.646873	556.899	496.955	
464.501	970.495	1.99418	555.771	492.704	
464.702	963.297	0.12264	550.774	490.313	
464.902	958.013	1.0657	544.306	485.489	
465.103	953.512	1.89759	544.267	482.519	
465.303	946.803	0.450867	538.165	480.75	
465.503	943.592	-1.55807	536.963	478.515	
465.703	937.062	1.23088	531.26	475.315	
465.904	935.523	-0.878749	531.211	473.779	
466.104	932.608	0.405495	530.319	472.742	
466.304	929.123	0.241541	526.327	471.538	
466.504	927.014	0.295241	526.958	468.915	
466.704	917.65	0.263751	522.219	465.113	
466.904	916.21	1.20481	520.24	464.496	
467.104	914.182	0.716088	515.211	462.36	
467.304	908.807	-0.250004	515.55	460.887	
467.504	904.123	2.20464	512.447	457.667	
467.704	904.715	0.13616	513.21	458.746	
467.904	899.01	-0.810104	508.773	451.615	
468.104	901.653	0.328822	510.578	455.011	
468.304	901.707	-0.415296	507.151	454.585	
468.504	898.504	0.0582472	511.785	451.266	
468.704	898.833	-0.179914	507.462	451.128	
468.904	898.094	-0.880007	504.898	453.294	
469.104	897.395	-0.69636	505.941	450.386	
469.304	897.859	-0.051678	507.059	449.045	
469.503	897.189	0.400938	504.887	446.923	
469.703	898.173	-1.24131	505.295	449.579	
469.903	897.982	-0.142516	504.218	450.366	
470.103	897.733	-0.141719	505.619	451.596	
470.302	897.273	-0.859511	505.843	450.201	
470.502	899.317	-0.44051	506.52	449.95	
470.701	903.443	0.8066	508.028	451.999	
470.901	903.786	0.899888	505.218	453.268	
471.101	902.344	-0.201172	507.418	452.133	
471.3	908.543	0.0111776	507.251	452.983	
471.5	907.841	1.41878	508.027	452.592	
471.699	908.545	-0.188669	503.662	452.87	
471.899	908.956	-0.315266	509.219	451.033	
472.098	911.906	0.381266	512.451	455.022	
472.298	914.058	0.0165532	511.678	454.827	
472.497	916.073	1.26805	508.902	452.069	
472.696	918.856	0.269416	509.987	455.866	
472.896	920.283	-0.757656	512.69	454.786	
473.095	922.292	-0.16951	509.392	454.091	
473.294	920.618	0.234601	510.539	458.418	
473.494	922.867	-0.549779	511.346	456.549	
473.693	924.642	-0.0706423	512.135	459.95	
473.892	932.123	0.564841	510.766	458.663	
474.091	931.422	1.56107	513.684	460.673	
474.29	935.212	-0.525342	513.371	461.126	
474.49	939.117	-0.519011	518.185	464.32	
474.689	936.157	1.05311	514.897	460.916	
474.888	937.851	-0.289452	513.447	462.578	
475.087	943.09	1.78531	520.244	463.307	
475.286	945.42	-0.219393	517.717	462.654	
475.485	944.657	0.484513	516.995	464.355	
475.684	947.561	-0.777065	517.442	466.684	
475.883	948.753	-0.610356	516.844	465.804	
476.082	950.416	0.455097	518.404	467.497	
476.281	953.431	0.475893	520.311	467.505	
476.48	954.552	0.163276	521.696	468.324	
476.678	955.12	-0.110463	517.265	464.803	
476.877	955.975	1.1857	519.751	467.391	
477.076	964.145	-0.441432	519.556	469.878	
477.275	960.808	0.796477	519.944	468.348	
477.474	967.587	-0.1834	520.931	468.985	
477.672	968.669	1.59056	521.505	470.09	
477.871	973.048	2.02359	528.657	472.65	
478.07	975.194	0.570951	523.99	472.517	
478.269	983.22	-0.315305	528.547	474.805	
478.467	978.269	1.07112	525.627	475.329	
478.666	985.885	0.74316	529.219	476.29	
478.864	984.909	0.19303	525.474	475.46	
479.063	990.999	0.591469	531.356	475.628	
479.262	993.739	-0.078549	529.583	482.837	
479.46	997.013	2.04659	532.146	480.275	
479.659	1000.62	0.235795	532.082	481.517	
479.857	1002.67	0.25644	534.308	481.032	
480.055	1003.8	-0.16181	532.721	481.968	
480.254	1012.3	0.773697	537.778	482.278	
480.452	1014.25	1.3498	536.836	488.442	
480.651	1016.31	1.8652	536.654	484.362	
480.849	1021.67	0.318745	539.33	489.602	
481.047	1018.62	1.0096	536.789	485.702	
481.246	1026	-0.489464	542.433	490.779	
481.444	1029.9	0.135178	541.575	489.341	
481.642	1037.22	-0.521838	542.492	493.44	
481.84	1040.96	0.489806	544.216	495.34	
482.039	1044.18	0.953229	548.254	496.009	
482.237	1043.19	0.401004	545.855	496.05	
482.435	1049.66	-1.13815	548.805	498.023	
482.633	1053.66	3.01807	551.298	497.533	
482.831	1059.39	0.648713	550.937	499.476	
483.029	1065.67	1.57322	551.73	502.156	
483.227	1067.27	-0.944485	552.113	503.962	
483.425	1069.86	0.272769	556.391	504.338	
483.623	1074.6	-0.267284	554.521	503.056	
483.821	1081.66	1.36862	556.059	509.018	
484.019	1086.26	-0.0473384	563.793	510.774	
484.217	1087.38	0.299413	557.395	509.647	
484.415	1094.46	0.16386	562.582	512.42	
484.613	1098.37	1.35967	566.078	515.059	
484.811	1098.65	0.866669	562.143	512.471	
485.008	1103.47	1.94582	561.848	517.918	
485.206	1107.6	0.900883	565.883	517.66	
485.404	1112.45	0.189965	564.496	516.126	
485.602	1116.38	2.35213	565.303	519.913	
485.799	1124.78	0.360512	569.288	521.697	
485.997	1129.67	2.53058	569.927	526.654	
486.195	1132.15	0.307427	571.893	523.818	
486.392	1140.13	0.170381	575.392	526.763	
486.59	1142.23	0.57478	576.104	527.833	
486.788	1149.84	1.10359	577.966	529.024	
486.985	1149.2	1.70403	576.687	530.039	
487.183	1155.5	0.656926	578.88	532.948	
487.38	1160.51	1.63856	578.395	529.647	
487.578	1164.22	-0.064182	580.105	534.447	
487.775	1167.37	1.67973	583.045	536.79	
487.973	1169.72	0.844886	581.093	535.961	
488.17	1180.1	0.284574	584.95	539.096	
488.367	1183.3	1.08347	585.857	538.549	
488.565	1191.32	1.17375	584.465	541.482	
488.762	1191.68	0.0807156	588.661	540.231	
488.959	1197.74	0.0484416	586.875	545.108	
489.157	1202.96	2.41591	589.065	546.805	
489.354	1206.32	0.662746	589.999	544.109	
489.551	1207.82	-0.161498	588.99	548.238	
489.749	1215.29	-0.0161911	592.787	547.254	
489.946	1221.14	0.670617	594.477	550.886	
490.143	1223.79	0.448403	592.356	550.289	
490.34	1227.49	1.02193	594.178	553.463	
490.537	1236.42	0.423879	597.223	554.545	
490.734	1240.2	1.7606	594.386	554.899	
490.931	1242.61	0.907875	595.923	555.332	
491.128	1250.28	0.14191	599.826	557.162	
491.325	1252.34	-0.0763818	599.961	557.896	
491.522	1258.39	0.377939	600.73	561.786	
491.719	1261.83	-0.274423	601.325	560.893	
491.916	1272.96	-1.01416	603.157	566.32	
492.113	1272.62	-0.478079	603.213	563.263	
492.31	1283.07	1.25432	605.24	567.242	
492.507	1285.03	1.08317	606.922	569.287	
492.704	1287.57	1.09887	607.402	567.055	
492.901	1291.25	0.536261	605.678	567.439	
493.097	1301.24	0.382572	610.971	570.348	
493.294	1305.82	-0.0332986	610.614	571.266	
493.491	1308.49	-0.654723	612.503	574.458	
493.688	1308.9	0.592224	606.157	571.49	
493.884	1315.44	1.15643	611.042	574.412	
494.081	1317.27	-0.264891	612.148	572.249	
494.278	1322.73	0.18829	612.365	574.615	
494.474	1325.28	1.42354	607.863	575.75	
494.671	1326.07	-0.159434	608.726	575.501	
494.867	1335.09	0.462916	611.085	578.075	
495.064	1337.55	0.98062	611.196	578.509	
495.26	1340.32	0.209112	611.828	578.517	
495.457	1348.83	-0.187711	615.531	582.847	
495.653	1352.99	1.302	612.316	578.681	
495.85	1354.15	-0.20943	609.997	582.44	
496.046	1362.8	-0.894085	615.553	583.432	
496.243	1371.02	-0.176751	615.056	586.444	
496.439	1372.4	0.42032	616.34	587.655	
496.635	1375.9	0.413764	617.521	586.369	
496.832	1379.95	0.170804	612.368	587.335	
497.028	1387.76	0.661553	621.014	592.402	
497.224	1392.09	1.72633	617.929	589.893	
497.42	1397.44	0.0660379	621.714	590.107	
497.617	1404.34	1.92959	622.844	593.165	
497.813	1405.51	-0.0164951	620.087	593.053	
498.009	1407	-0.378472	618.641	593.738	
498.205	1417.03	-0.455814	620.596	596.963	
498.401	1422.93	-0.246958	624.274	597.932	
498.597	1426.28	-0.197232	622.622	597.073	
498.793	1434.4	2.98168	623.169	598.386	
498.989	1435.43	-0.317449	622.797	599.079	
499.185	1440.08	0.027324	622	599.212	
499.381	1450.86	0.591445	628.485	600.72	
499.577	1456.22	0.388069	626.232	608.086	
499.773	1459.54	-0.906958	628.35	605.877	
499.969	1466.16	-0.158282	627.521	605.616	
500.165	1466.69	0.68637	626.12	607.072	
500.361	1473.91	0.461822	627.67	607.894	
500.557	1478.28	0.335586	628.833	607.272	
500.753	1478.58	0.248652	625.275	608.644	
500.948	1487.95	0.551192	628.571	611.297	
501.144	1490.71	-0.663742	632.932	607.821	
501.34	1494.62	0.258265	625.839	610.002	
501.536	1501.8	0.542659	624.618	612.135	
501.731	1505.29	0.423416	626.37	609.469	
501.927	1507.27	2.27376	626.667	613.025	
502.123	1511.34	0.566025	625.983	614.716	
502.318	1516.8	-0.33546	627.711	611.222	
502.514	1518.56	-0.679721	627.453	610.92	
502.709	1527.05	0.334771	627.428	613.842	
502.905	1529.34	-0.952268	628.368	614.807	
503.1	1533.58	1.11804	627.02	616.912	
503.296	1542.01	0.50096	629.807	616.008	
503.491	1540.38	-0.0996007	623.339	614.288	
503.687	1547.91	0.823176	627.29	616.769	
503.882	1548	-0.365742	626.204	615.736	
504.078	1559.27	-0.945196	626.639	617.744	
504.273	1558.64	0.728036	626.583	617.222	
504.468	1564.94	-0.129947	624.87	618.806	
504.664	1576.84	1.65687	627.373	621.469	
504.859	1575.25	1.39708	627.707	619.773	
505.054	1577.03	0.325224	625.823	618.699	
505.249	1580.39	0.869096	626.843	622.437	
505.445	1586.81	1.33704	625.222	621.534	
505.64	1591.46	1.22733	625.648	622.41	
505.835	1593.54	-0.127445	623.395	619.197	
506.03	1602.14	-0.499753	625.118	625.05	
506.225	1607.24	1.01601	626.707	621.373	
506.42	1613.28	-0.507252	622.129	623.769	
506.615	1614.82	-0.0656989	624.572	626.324	
506.81	1617.69	0.251677	623.684	624.137	
507.005	1623.29	0.753309	626.445	620.954	
507.2	1626.17	-0.380429	623.197	623.147	
507.395	1633.45	1.13044	623.64	623.44	
507.59	1633.53	1.90094	621.166	623.422	
507.785	1639.56	0.596532	624.746	626.436	
507.98	1641.95	0.470854	622.677	623.751	
508.175	1643.76	0.291826	620.316	623.729	
508.37	1649.14	0.509261	621.86	626.92	
508.564	1653.09	1.30141	619.274	626.865	
508.759	1662.4	0.873778	619.686	629.346	
508.954	1661.08	0.34358	618.533	626.321	
509.149	1666.68	1.07121	620.412	624.884	
509.343	1669.28	0.235035	616.656	622.581	
509.538	1674.1	-0.195739	617.833	628.647	
509.733	1677.84	0.72221	616.838	625.572	
509.927	1684.51	-0.0146126	617.198	627.687	
510.122	1688.43	-0.267353	618.125	628.462	
510.317	1691.2	-0.3878	617.13	625.969	
510.511	1695.45	-0.57116	616.65	627.944	
510.706	1698.32	0.780986	614.649	627.713	
510.9	1703.83	0.650592	615.425	627.489	
511.095	1704.74	0.570998	613.579	628.486	
511.289	1704.55	0.506644	612.308	622.632	
511.484	1707.57	-0.738928	608.821	624.649	
511.678	1711.56	1.01841	607.245	624.218	
511.872	1712.87	-0.261023	607.651	624.737	
512.067	1713.89	-0.0852682	607.544	622.718	
512.261	1722.7	0.0237181	610.667	625.688	
512.455	1722.92	0.085072	609.719	625.268	
512.65	1727.92	-0.339837	607.032	622.907	
512.844	1732.78	-0.231158	606.871	623.32	
513.038	1733.32	0.338708	605.538	622.724	
513.232	1736.31	0.253501	603.493	623.022	
513.427	1744.33	-0.531394	605.234	624.671	
513.621	1747.35	0.112441	601.695	625.526	
513.815	1747.3	-0.365137	601.925	622.07	
514.009	1754.97	-0.942887	602.719	625.47	
514.203	1756.12	-0.322529	601.57	622.917	
514.397	1764.02	0.715765	602.053	624.992	
514.591	1765.31	0.822466	600.802	627.501	
514.785	1774.55	-0.907241	598.408	622.71	
514.979	1773.54	1.23263	599.329	622.643	
515.173	1776.7	-0.549462	594.451	623.523	
515.367	1781.94	-0.265655	595.077	621.721	
515.561	1783.99	0.451624	595.626	620.349	
515.755	1788.85	-0.796559	596.148	625.976	
515.949	1789.23	0.622323	594.606	623.896	
516.142	1793.33	0.18104	598.105	619.04	
516.336	1800.91	-0.0651311	594.799	620.308	
516.53	1797.35	-0.199062	593.745	621.475	
516.724	1800.45	0.588424	592.793	623.156	
516.917	1806.94	-0.0602165	590.42	619.494	
517.111	1812.86	-0.352556	591.079	625.624	
517.305	1820.35	0.0278573	589.926	620.259	
517.499	1818.27	-0.629658	587.357	620.8	
517.692	1817.84	0.415892	585.522	620.256	
517.886	1828.27	-0.0278514	590.236	620.532	
518.079	1828.11	0.690228	588.103	618.523	
518.273	1833.06	1.80179	587.005	618.965	
518.466	1834.58	0.536421	581.349	620.055	
518.66	1837.38	0.550132	582.944	620.175	
518.853	1843.44	0.0879799	582.018	619.263	
519.047	1845.4	0.781375	583.263	618.109	
519.24	1847.47	0.671721	581.15	619.384	
519.434	1852.54	0.68126	579.099	616.962	
519.627	1857.8	0.510165	579.524	616.147	
519.82	1855.25	-0.722392	575.264	615.149	
520.014	1862.09	1.12297	575.609	617.944	
520.207	1865.14	-0.528709	574.948	617.245	
520.4	1866.42	0.765986	575.819	616.254	
520.594	1867.65	0.0649653	573.814	616.181	
520.787	1876.59	-1.2701	572.148	614.795	
520.98	1875.43	0.585187	570.342	616.197	
521.173	1878.85	-0.307326	571.528	614.957	
521.366	1882.73	-0.195618	571.566	613.516	
521.56	1886.62	0.312199	569.579	612.93	
521.753	1888.32	0.368589	567.51	609.517	
521.946	1889.84	0.630196	565.358	613.299	
522.139	1894.19	0.761556	565.683	609.741	
522.332	1898.28	1.28647	563.663	610.786	
522.525	1899.63	0.393184	563.329	609.123	
522.718	1907.98	0.403859	561.145	612.567	
522.911	1904.37	-0.00468344	559.497	611.608	
523.104	1912.86	0.986063	561.05	608.647	
523.297	1917.85	-0.315502	561.168	609.529	
523.489	1915.44	0.00470102	557.298	609.558	
523.682	1918.72	0.0282431	557.887	607.799	
523.875	1921.84	0.343567	554.737	605.284	
524.068	1921.07	0.0470698	554.088	605.128	
524.261	1925.02	0.391489	554.571	606.392	
524.453	1927.89	0.146334	550.93	604.57	
524.646	1933.6	0.123236	554.177	606.678	
524.839	1940.58	-1.06447	549.033	604.839	
525.031	1941.08	-0.128652	553.664	603.219	
525.224	1945.61	0.0381862	548.725	600.579	
525.417	1943.27	0.67279	542.93	601.732	
525.609	1951.52	0.469395	548.143	602.043	
525.802	1951.96	-0.0528231	545.146	603.955	
525.995	1955.11	-1.00794	545.998	599.307	
526.187	1952.71	4.0959	540.748	596.962	
526.38	1961.96	0.414642	541.696	601.144	
526.572	1962.38	1.33078	540.648	597.431	
526.765	1971.24	0.285011	536.923	599.432	
526.957	1967.33	-0.217556	535.045	597.298	
527.149	1971.07	-0.145143	535.218	594.533	
527.342	1973.21	0.324801	533.322	594.42	
527.534	1972.8	-0.364227	533.819	595.964	
527.726	1979.19	-0.0973872	532.822	595.312	
527.919	1977.53	-0.350389	530.472	595.05	
528.111	1982.1	1.85418	527.841	593.046	
528.303	1981.98	-0.185598	527.439	591.421	
528.495	1989.57	0.132367	526.623	592.087	
528.688	1991.71	-0.593507	527.398	590.803	
528.88	1992.13	1.498	524.209	590.89	
529.072	1999.47	-0.211772	522.695	592.482	
529.264	2000.64	2.026	522.778	591.761	
529.456	1996.58	0.286029	520.485	590.48	
529.648	1999.8	-0.167989	518.767	587.395	
529.84	2001.86	0.599061	520.457	587.377	
530.032	2006.32	-0.0744207	515.83	585.289	
530.224	2007.98	0.312581	515.418	586.137	
530.416	2010.95	-0.432172	513.312	584.496	
530.608	2014.74	-0.602953	511.291	584.442	
530.8	2017.35	1.03303	514.135	583.386	
530.992	2019.83	0.339965	512.987	582.363	
531.184	2022.95	0.930673	509.192	582.828	
531.376	2023.06	0.495234	507.768	579.485	
531.568	2028.74	0.88888	505.624	580.969	
531.759	2029.92	0.372026	507.62	579.561	
531.951	2035.43	1.29665	506.483	578.681	
532.143	2030.06	0.0452651	503.275	575.062	
532.335	2036.76	0.777241	502.338	576.967	
532.526	2038.56	-1.01687	503.392	577.507	
532.718	2038.15	0.987944	498.481	575.287	
532.91	2043.46	2.42819	495.845	571.935	
533.101	2049.35	-0.335915	496.799	577.046	
533.293	2050.61	0.616282	495.099	575.062	
533.484	2056.25	1.14452	497.367	573.668	
533.676	2056.83	-0.102125	495.442	571.133	
533.868	2057.71	0.577446	494.043	571.53	
534.059	2061.81	-0.655726	491.868	573.014	
534.251	2064.7	1.41205	488.743	571.635	
534.442	2065.85	1.49502	488.592	569.816	
534.633	2068.9	-0.308912	486.036	569.837	
534.825	2081.15	-0.388151	483.92	567.554	
535.016	2073.44	0.221579	484.521	565.509	
535.208	2081.71	0.393131	486.431	566.695	
535.399	2078.84	-0.1551	484.365	565.982	
535.59	2085.12	-0.35783	483.1	566.818	
535.781	2087.79	0.0882929	482.73	566.937	
535.973	2087.12	0.88181	479.892	564.027	
536.164	2088.25	1.46269	478.839	562.295	
536.355	2093.93	1.33443	478.973	564.006	
536.546	2094.35	2.05231	478.522	560.597	
536.737	2097.35	-0.576945	474.935	561.754	
536.929	2103.5	0.348425	473.975	559.105	
537.12	2102.8	1.44429	471.875	556.334	
537.311	2101.7	0.878557	470.26	555.95	
537.502	2105.01	-0.187426	470.577	555.977	
537.693	2109.7	1.48624	468.7	556.24	
537.884	2108.81	1.39226	466.92	552.993	
538.075	2111.54	0.458645	464.822	553.632	
538.266	2109.95	0.724821	464.224	551.585	
538.457	2114.03	-0.329156	461.923	553.216	
538.648	2119.44	2.46704	460.967	550.972	
538.838	2122.75	-0.711408	461.313	548.862	
539.029	2122.6	1.42537	457.75	551.365	
539.22	2129.56	0.816264	457.34	553.512	
539.411	2127.26	1.31956	453.283	547.373	
539.602	2135.76	2.06297	453.167	549.858	
539.792	2133.64	0.43808	454.392	544.007	
539.983	2133.7	3.25778	455.913	546.129	
540.174	2145.19	1.02633	452.053	548.717	
540.365	2142.68	1.11272	449.299	544.411	
540.555	2143.57	1.04907	451.2	547.913	
540.746	2140.73	1.69242	445.172	544.235	
540.936	2149.01	2.00263	444.634	540.872	
541.127	2149.51	1.90094	442.355	539.954	
541.317	2150.79	2.37749	445.256	540.945	
541.508	2144.84	2.31338	439.709	535.322	
541.698	2154.33	2.92394	439.219	540.008	
541.889	2156.38	3.60904	439.896	535.843	
542.079	2163.03	1.31282	436.192	537.966	
542.27	2161.11	1.65229	434.815	537.423	
542.46	2162.17	1.43354	432.959	535.48	
542.651	2162.34	1.56848	433.458	533.174	
542.841	2172.93	2.45161	434.057	533.348	
543.031	2174.48	2.89676	433.614	534.042	
543.222	2170.16	2.90906	430.645	532.703	
543.412	2172.68	2.68449	428.155	530.812	
543.602	2173.82	4.10052	429.333	531.426	
543.792	2180.61	0.802895	428.391	529.662	
543.982	2171.32	2.59302	425.59	526.201	
544.173	2178.57	1.10798	424.582	526.506	
544.363	2181.96	2.97592	422.071	523.8	
544.553	2186.02	2.58938	421.289	525.685	
544.743	2186.35	1.97761	418.524	525.499	
544.933	2190.33	1.61335	420.606	526.387	
545.123	2194.96	3.07184	416.8	522.591	
545.313	2197.86	4.01917	417.388	522.159	
545.503	2198.16	1.82334	414.52	520.89	
545.693	2200.61	2.09711	416.211	519.757	
545.883	2203.26	2.62348	413.945	520.327	
546.073	2203.78	2.8221	413.862	519.156	
546.263	2209.93	2.26158	411.371	519.696	
546.453	2208.32	2.6466	412.519	517.976	
546.643	2210.7	1.83502	410.742	519.458	
546.832	2213.69	2.63838	406.717	516.083	
547.022	2219.36	2.40224	407.119	516.071	
547.212	2222.77	0.641086	406.679	514.149	
547.402	2217.61	0.804794	403.69	513.041	
547.591	2223.16	1.8668	404.379	512.697	
547.781	2225.86	0.78814	400.325	511.886	
547.971	2229.95	1.725	398.776	512.255	
548.16	2232.29	-0.250739	400.388	511.717	
548.35	2233.96	1.30145	398.913	509.92	
548.54	2233.52	0.429071	397.292	509.549	
548.729	2238.37	0.499298	398.412	510.038	
548.919	2242.83	2.72504	397.795	508.109	
549.108	2244.07	-0.397834	392.997	508.004	
549.298	2245.92	1.1566	396.238	506.091	
549.487	2250.68	0.669214	394.671	507.776	
549.677	2248.53	-0.128681	388.207	504.811	
549.866	2256.4	0.772266	391.002	507.37	
550.055	2255.88	0.730794	389.634	504.898	
550.245	2259.17	0.854181	388.782	504.319	
550.434	2265.69	0.57805	386.592	504.228	
550.623	2266.78	1.04946	385.69	503.003	
550.813	2266.05	1.14189	385.485	501.364	
551.002	2269.53	0.216383	384.974	501.525	
551.191	2271.45	1.31524	383.444	499.787	
551.381	2271.9	1.24879	383.549	498.715	
551.57	2278.56	0.391933	381.939	498.049	
551.759	2276.76	0.351516	379.529	498.654	
551.948	2283	1.70981	380.829	500.141	
552.137	2284.3	0.389811	380.906	499.246	
552.326	2291.31	1.72433	377.483	495.929	
552.515	2292.89	0.165333	378.239	497.878	
552.704	2292.5	0.314655	375.051	493.942	
552.893	2291.65	-0.0773296	374.978	493.002	
553.082	2298.11	1.3956	374.386	495.241	
553.271	2294.83	1.14921	373.755	494.558	
553.46	2297.92	1.73549	371.093	493.057	
553.649	2302.4	1.66243	369.025	494.14	
553.838	2297.88	-0.253557	366.547	488.908	
554.027	2306.46	1.0677	368.946	492.123	
554.216	2301.24	0.200443	367.408	486.449	
554.405	2301.24	1.11031	367.33	487.05	
554.593	2307.79	0.128497	363.695	487.639	
554.782	2303.08	0.109008	364.126	484.541	
554.971	2303.82	0.264965	360.78	484.446	
555.16	2306.66	0.586232	360.06	485.927	
555.348	2312.43	0.755827	359.081	485.587	
555.537	2312.68	0.259499	360.367	482.08	
555.726	2315.61	0.706755	357.141	483.681	
555.914	2315.96	2.25207	357.24	481.135	
556.103	2318.63	0.833277	357.493	479.534	
556.291	2326.3	0.442377	353.665	481.311	
556.48	2322.91	2.22089	354.509	479.358	
556.668	2336.04	0.13649	355.571	478.412	
556.857	2332.11	0.895591	352.01	478.44	
557.045	2336.33	-0.338298	352.16	479.789	
557.234	2335.87	1.14792	350.54	475.921	
557.422	2343.12	-0.323682	350.773	480.339	
557.611	2342.37	-0.0889246	350.815	474.405	
557.799	2348.68	-0.421531	350.35	475.685	
557.987	2342.34	-1.19676	347.035	474.565	
558.176	2349.72	-0.224393	349.383	476.041	
558.364	2349.84	0.149294	346.773	475.788	
558.552	2355.28	1.24612	345.72	472.65	
558.74	2354.4	0.172546	345.375	475.079	
558.929	2362.23	1.33884	345.876	474.348	
559.117	2359.9	0.0512457	344.481	472.549	
559.305	2364.23	1.69524	344.513	471.423	
559.493	2365.94	0.419038	342.053	472.529	
559.681	2369.75	1.17284	342.574	469.601	
559.869	2373.07	0.274577	340.127	467.534	
560.057	2378.65	0.0605272	340.655	471.518	
560.245	2375.31	0.167441	340.459	471.978	
560.433	2377.65	-0.469393	337.393	468.699	
560.621	2379.86	-0.0511185	336.88	469.51	
560.809	2382.68	1.0741	337.851	466.62	
560.997	2383.44	-0.223103	336.323	465.614	
561.185	2388.3	-0.734994	335.331	466.87	
561.373	2390.92	0.381233	332.447	467.01	
561.561	2393.78	0.469416	332.566	466.822	
561.749	2399.42	-0.353576	333.241	467.941	
561.937	2398.13	-0.125545	332.599	465.459	
562.124	2398	-0.311022	333.094	463.042	
562.312	2406.4	0.651473	331.795	464.711	
562.5	2406.97	1.09817	331.675	463.316	
562.688	2406.22	0.0697236	330.219	462.632	
562.875	2409.95	-0.376933	328.838	461.758	
563.063	2412.68	0.44703	329.32	462.901	
563.251	2415.2	-0.847483	328.173	460.945	
563.438	2414.41	1.84268	328.039	459.99	
563.626	2416.68	0.870403	325.96	458.259	
563.813	2422.88	0.349932	326.482	460.747	
564.001	2420.62	0.484885	325.622	460.287	
564.188	2422.46	-0.270505	324.755	458.764	
564.376	2432.95	1.72575	326.981	460.521	
564.563	2431.01	0.0841644	323.886	459.111	
564.751	2433.96	-0.205712	323.057	458.656	
564.938	2433.23	-0.471767	320.868	456.653	
565.126	2438.71	0.518945	322.196	457.325	
565.313	2442.92	1.30141	320.772	456.873	
565.5	2440.14	1.20539	319.988	453.998	
565.688	2448.37	0.304768	319.655	454.972	
565.875	2445.11	0.201361	318.099	455.54	
566.062	2456.58	0.502819	319.442	456.487	
566.249	2450.9	-0.187858	319.254	453.667	
566.437	2454.57	0.131655	318.675	452.352	
566.624	2450.97	-0.620376	315.825	451.728	
566.811	2455.86	-0.523423	314.976	453.204	
566.998	2457.39	-0.324954	314.744	450.314	
567.185	2464.33	-0.694063	317.491	453.533	
567.372	2463.06	0.958801	316.587	453.763	
567.559	2464.82	0.789128	314.516	450.983	
567.746	2467.57	-0.2652	313.453	452.272	
567.933	2464.96	0.610353	310.588	449.471	
568.12	2469.41	0.279607	311.512	448.33	
568.307	2470.92	0.721298	310.743	449.293	
568.494	2475.69	0.779692	313.644	448.695	
568.681	2475.76	0.366583	310.363	448.728	
568.868	2475.36	-0.852717	309.381	447.61	
569.055	2484.94	0.913503	311.828	445.633	
569.242	2482.04	0.712235	309.88	444.981	
569.429	2484.86	0.292091	308.967	447	
569.615	2489.93	-0.700806	308.836	444.421	
569.802	2490.01	1.618	306.6	440.329	
569.989	2494.8	0.794188	304.187	444.991	
570.176	2496.7	0.447897	304.117	445.406	
570.362	2501.2	-0.0773235	304.692	444.679	
570.549	2498.7	-0.159577	305.515	442.961	
570.736	2507.95	-0.658906	305.458	445.298	
570.922	2505.18	0.480368	306.12	443.341	
571.109	2510.18	0.816803	306.045	443.653	
571.295	2507.25	-0.432545	303.436	441.867	
571.482	2508.67	1.02679	303.227	439.873	
571.668	2519.66	1.27916	302.966	443.414	
571.855	2522.59	-0.401392	302.902	443.618	
572.041	2523.54	0.0147042	303.058	442.977	
572.228	2525.66	-0.00490579	302.299	439.988	
572.414	2525.1	-0.535478	303.817	440.945	
572.601	2525.01	-0.295088	299.959	439.274	
572.787	2524.7	-0.305407	299.376	437.696	
572.973	2530.55	0.646268	298.706	438.089	
573.16	2531.89	-0.178047	297.219	438.519	
573.346	2536.4	-0.0445509	299.899	440.679	
573.532	2539.43	0.646175	298.811	435.883	
573.718	2541.94	-0.278417	297.862	438.28	
573.905	2533.63	-0.228571	296.965	435.615	
574.091	2537.16	1.09714	293.921	435.235	
574.277	2545.78	3.17271	297.967	434.533	
574.463	2546.86	1.00243	294.983	434.805	
574.649	2546	0.527018	293.696	435.539	
574.835	2546.41	-0.457654	296.321	434.623	
575.021	2550.68	-0.744976	293.843	435.321	
575.207	2547.65	0.902801	294.562	434.992	
575.393	2552.46	0.803548	293.809	432.956	
575.579	2556.15	0.28367	294.019	433.744	
575.765	2557.59	0.690872	294.745	429.126	
575.951	2565.93	-0.816864	292.798	432.073	
576.137	2565.65	0.362855	292.652	434.558	
576.323	2564.87	0.875674	292.422	431.147	
576.509	2574.24	-0.215583	294.452	433.639	
576.695	2575.5	1.35289	294.1	431.395	
576.88	2584.28	0.759922	293.949	431.062	
577.066	2586.12	0.863984	291.478	432.354	
577.252	2587.02	0.51244	291.456	429.763	
577.438	2586.07	-0.819075	291.01	431.221	
577.623	2592.94	0.260332	292.561	432.342	
577.809	2599.84	-0.119883	290.259	428.281	
577.995	2599.37	0.841924	289.876	432.289	
578.18	2600.27	-0.449133	291.479	429.422	
578.366	2605.09	1.93403	290.084	428.786	
578.552	2604.84	0.1943	288.541	429.61	
578.737	2609.67	0.726175	287.465	427.614	
578.923	2610.81	0.247696	289.212	427.904	
579.108	2614.56	0.724316	288.026	428.342	
579.294	2607.02	0.460333	289.163	426.54	
579.479	2610.01	0.583649	284.739	427.769	
579.665	2614.64	-0.308865	286.882	426.546	
579.85	2616.38	-0.677649	286.944	428.095	
580.035	2620.36	0.363724	286.227	428.597	
580.221	2622.06	0.477533	285.686	428.535	
580.406	2622.5	0.783798	284.61	423.528	
580.591	2626.4	-0.629439	288.276	424.475	
580.777	2628.94	-1.02437	286.983	424.105	
580.962	2632.17	0.124351	285.787	424.159	
581.147	2641.04	0.862203	285.478	427.588	
581.332	2638.93	0.266022	286.598	423.283	
581.517	2643	0.669344	284.146	426.396	
581.703	2640.84	-0.89195	283.631	425.165	
581.888	2647.05	0.72638	282.48	423.15	
582.073	2653.62	-0.0328472	285.694	423.251	
582.258	2658.02	0.866974	285.054	425.397	
582.443	2661.52	0.512434	283.679	429.052	
582.628	2656.99	1.29317	283.195	424.012	
582.813	2657.84	-0.126797	280.93	423.953	
582.998	2667.2	0.243316	284.401	425.469	
583.183	2668.61	0.940766	283.049	426.064	
583.368	2681.72	-0.250359	284.436	426.38	
583.553	2676.89	-1.00102	284.044	423.76	
583.738	2678.45	0.962614	285.998	425.661	
583.923	2682.03	2.90371	284.642	422.638	
584.107	2690.71	1.4488	281.379	424.47	
584.292	2694.01	-0.145634	282.479	422.269	
584.477	2690.75	0.0448355	280.291	422.214	
584.662	2697.69	2.21223	281.345	421.977	
584.846	2698.4	1.22137	282.023	423.559	
585.031	2704.64	0.191484	281.28	424.443	
585.216	2707.15	0.0507202	280.509	420.403	
585.4	2712.63	1.40219	280.827	423.703	
585.585	2712.13	2.51169	281.483	421.078	
585.77	2718.03	1.75245	279.861	424.008	
585.954	2712.91	3.04154	282.772	419.632	
586.139	2721.04	0.300885	281.776	418.651	
586.323	2724.6	0.415269	281.221	423.304	
586.508	2731.95	-0.0968419	278.661	419.101	
586.692	2730.95	1.6653	279.649	424.697	
586.877	2733.98	-0.799406	280.652	423.194	
587.061	2738.17	0.904433	279.426	421.369	
587.246	2736.68	-0.01716	281.115	421.713	
587.43	2737.87	0.64641	279.081	418.755	
587.614	2743.67	0.332435	277.973	420.958	
587.799	2756.74	0.420064	278	420.208	
587.983	2755	0.437099	278.649	421.262	
588.167	2759.86	0.557818	280.13	421.885	
588.351	2761.95	0.230477	279.154	422.337	
588.536	2763.02	2.15893	276.197	420.452	
588.72	2763.43	0.155368	277.675	419.903	
588.904	2767.79	1.05006	281.022	423.145	
589.088	2772.01	0.213251	276.806	419.895	
589.272	2776.03	-0.669967	275.495	421.54	
589.456	2779.15	1.44931	277.065	420.188	
589.641	2778.99	-0.023082	279.183	418.194	
589.825	2784.47	-1.1611	276.579	418.395	
590.009	2782.74	-0.150043	276.948	419.239	
590.193	2790.08	2.33486	278.257	419.659	
590.377	2793.74	0.814092	277.267	419.28	
590.561	2795.3	1.69783	277.202	419.361	
590.745	2804.39	0.127387	275.57	419.691	
590.928	2802.69	1.64026	274.653	420.197	
591.112	2807.81	1.22642	277.097	420.314	
591.296	2808.63	0.618543	274.518	417.553	
591.48	2816.28	1.63122	274.212	419.807	
591.664	2819.98	-0.5794	275.269	416.643	
591.848	2820.23	-0.417064	275.357	418.935	
592.031	2822.92	-0.556437	276.399	419.198	
592.215	2822.31	1.04234	273.512	415.83	
592.399	2827.57	1.30424	277.992	419.739	
592.582	2833.27	-0.463725	273.909	418.997	
592.766	2837.05	0.237451	275.082	418.498	
592.95	2834.62	0.536854	273.403	415.198	
593.133	2841.17	1.62467	275.163	420.342	
593.317	2848.94	0.196626	273.198	417.198	
593.5	2848.55	-0.0924144	274.781	418.658	
593.684	2850.41	-0.161743	271.905	417.434	
593.867	2858.71	0.15018	273.702	418.221	
594.051	2854.03	1.01489	274.189	416.12	
594.234	2863.54	0.612146	273.492	416.076	
594.418	2866.34	-1.1885	272.027	416.781	
594.601	2871.44	1.04548	271.883	417.788	
594.785	2874.18	0.697667	271.519	414.166	
594.968	2882.65	0.317492	273.857	415.266	
595.151	2884.05	-0.0403865	273.136	419.162	
595.334	2883.4	0.195922	274.097	415.795	
595.518	2891.51	-0.305411	272.143	419.067	
595.701	2887.4	-0.999324	274.27	417.622	
595.884	2898.51	-0.695876	271.186	415.154	
596.067	2894.72	-1.17807	270.426	414.936	
596.251	2896.63	-0.406965	272.693	414.023	
596.434	2905.54	1.1652	271.129	416.826	
596.617	2908.99	0.200926	271.656	416.59	
596.8	2913.47	1.09704	272.646	416.984	
596.983	2917.71	0.0803916	270.531	417.648	
597.166	2911.91	2.52971	269.599	415.849	
597.349	2924.08	-0.590398	272.414	415.944	
597.532	2921.19	0.748495	269.174	414.645	
597.715	2927.26	-0.240542	269.912	416.681	
597.898	2926.56	0.457178	270.289	415.443	
598.081	2928.91	1.71978	266.353	413.02	
598.264	2928.29	0.416285	269.211	413.904	
598.447	2942.36	-0.148642	267.554	413.775	
598.63	2940.22	1.42703	268.327	415.977	
598.812	2948.06	-0.674703	269.515	415.281	
598.995	2946.94	1.55754	267.713	414.928	
599.178	2950.11	-0.427317	270.279	413.117	
599.361	2951.83	-0.426845	268.337	413.332	
599.543	2953.22	0.022787	268.248	414.597	
599.726	2953.02	-0.312682	266.338	415.175	
599.909	2962.3	0.130856	269.068	414.716	
600.091	2963.26	1.06842	269.107	414.859	
600.274	2957.13	0.566446	267.393	411.836	
600.457	2965.48	-0.0567168	266.308	414.036	
600.639	2971.48	1.05979	269.821	416.114	
600.822	2973.75	1.63041	264.782	412.331	
601.004	2982.47	1.24653	267.033	413.122	
601.187	2983.56	-0.158542	268.503	415.305	
601.369	2978.77	1.15208	262.261	411.128	
601.552	2988.6	0.452134	266.656	413.034	
601.734	2989.42	0.988669	266.144	412.825	
601.917	2990.43	0.355537	265.774	412.823	
602.099	2995.6	0.687751	262.55	413.235	
602.281	3003.15	0.0620919	264.843	412.208	
602.464	2995.79	0.731541	265.765	413.255	
602.646	3007.1	-0.862663	266.23	415.458	
602.828	3008.11	-0.867969	263.599	414.329	
603.01	3011.14	0.450029	266.458	413.73	
603.193	3014.38	-0.0618277	266.871	415.426	
603.375	3013.93	1.45539	263.84	412.283	
603.557	3021.04	-0.736689	264.066	411.067	
603.739	3017.57	0.432406	261.566	411.504	
603.921	3021.7	-0.780902	262.398	410.114	
604.103	3030.47	0.241967	262.427	410.777	
604.285	3027.19	1.11979	262.206	411.549	
604.467	3038.95	-0.0676289	265.109	413.31	
604.65	3035.09	0.112562	261.826	411.984	
604.832	3035.05	1.03444	260.333	412.408	
605.013	3034.33	0.342599	260.832	411.538	
605.195	3044.65	-0.545577	260.982	412.188	
605.377	3042.82	0.499977	263.117	408.672	
605.559	3045.72	-0.897603	262.401	411.179	
605.741	3051.49	0.342352	259.912	411.594	
605.923	3051.61	0.800637	259.009	409.917	
606.105	3056.87	1.08146	260.505	411.779	
606.287	3056.1	0.894835	262.069	409.4	
606.468	3061.51	0.660009	261.313	410.971	
606.65	3065.43	0.407851	260.756	410.414	
606.832	3060.18	0.122854	260.401	411.735	
607.013	3066.35	0.38572	260.109	412.366	
607.195	3064.58	-0.111717	260.053	411.486	
607.377	3066.05	0.267913	261.117	408.711	
607.558	3070.31	-0.134125	257.252	410.769	
607.74	3070.42	0.519487	258.503	408.838	
607.922	3071.47	-0.93174	256.859	408.243	
608.103	3068.5	0.707573	256.94	408.91	
608.285	3079.68	0.0837825	258.447	410.316	
608.466	3078.87	1.12061	255.909	408.854	
608.648	3074.81	0.3571	258.06	409.121	
608.829	3077.35	1.69974	257.759	408.933	
609.01	3082.34	0.741685	258.385	410.57	
609.192	3087.35	-0.317899	258.205	409.774	
609.373	3089.26	0.128354	258.248	410.319	
609.555	3083.05	0.256392	255.602	407.877	
609.736	3094.09	0.966727	257.963	408.877	
609.917	3089.67	2.21987	258.644	409.842	
610.099	3094.93	2.24143	256.114	408.02	
610.28	3091.13	4.45036	256.824	405.709	
610.461	3098.31	4.49709	254.736	408.928	
610.642	3098.45	2.41871	256.097	406.352	
610.823	3100.97	1.89923	253.442	408.761	
611.004	3102.21	3.14086	255.421	407.229	
611.186	3103.55	2.92873	257.715	407.612	
611.367	3102.17	2.19847	256.299	405.575	
611.548	3108.91	1.59041	254.318	408.171	
611.729	3104.79	1.98393	252.96	407.815	
611.91	3107.23	2.78773	255.122	407.998	
612.091	3112.42	3.08218	254.166	407.994	
612.272	3114.64	0.939849	253.23	406.533	
612.453	3107.95	2.11761	253.843	408.648	
612.634	3113.23	2.79659	253.289	407.486	
612.815	3106.79	1.02879	255.682	405.222	
612.995	3107.02	1.79367	252.199	407.031	
613.176	3108.99	-0.134986	253.38	404.733	
613.357	3099.43	1.03987	250.381	402.633	
613.538	3099.78	1.96918	255.212	403.276	
613.719	3108.15	1.61743	252.258	400.607	
613.899	3100.16	2.23756	251.504	402.234	
614.08	3104.59	0.327565	251.742	403.815	
614.261	3099.65	1.05003	251.798	403.187	
614.441	3102.45	1.88877	251.964	405.422	
614.622	3098.34	0.610511	251.548	406.342	
614.803	3103.11	0.804169	250.019	406.001	
614.983	3105.05	1.07685	252.683	400.325	
615.164	3100.79	-0.147503	251.622	403.474	
615.344	3096.55	0.11325	252.782	403.122	
615.525	3106.63	0.977555	250.481	401.017	
615.705	3105.04	1.16038	253.045	403.478	
615.886	3101.27	0.147807	249.427	399.508	
616.066	3096.6	1.91037	248.966	402.819	
616.247	3099.5	-0.68339	249.768	400.626	
616.427	3098.22	-0.347933	251.78	402.741	
616.607	3101.56	1.17713	248.893	400.301	
616.788	3097.08	-0.120079	250.305	400.785	
616.968	3095.13	-0.692309	250.181	402.355	
617.148	3094.99	1.17432	248.698	399.394	
617.329	3090.74	-0.0286404	251.151	400.559	
617.509	3088.41	0.166247	247.832	399.136	
617.689	3087.52	-0.826453	247.041	399.628	
617.869	3086.94	0.143504	249.468	397.679	
618.049	3088.12	1.17208	246.606	398.688	
618.23	3085.04	1.13138	249.696	399.513	
618.41	3089.32	0.097918	248.414	397.345	
618.59	3089.32	0.951925	248.643	400.874	
618.77	3077.04	1.11009	246.788	395.528	
618.95	3081.22	1.85515	250.882	396.375	
619.13	3072.93	0.219021	248.882	398.181	
619.31	3078.74	0.254418	247.629	395.905	
619.49	3077.19	0.566908	248.732	398.172	
619.67	3068.34	0.0867678	248.746	398.854	
619.85	3066.94	-0.39898	248.171	394.638	
620.03	3066.99	-0.156425	247.484	396.783	
620.209	3064.08	-0.543931	249.348	397.232	
620.389	3065	0.16826	247.371	398.611	
620.569	3064.76	-0.823847	247.916	397.388	
620.749	3055.14	0.847597	247.998	394.121	
620.929	3052.68	-0.505446	249.737	395.096	
621.108	3054.51	1.64138	249.276	396.708	
621.288	3048.22	0.715789	249.122	392.667	
621.468	3051.05	-1.03102	249.725	395.621	
621.647	3049.14	1.9626	247.965	393.5	
621.827	3042.79	-0.851399	248.183	396.925	
622.007	3040.33	0.518987	247.586	395.857	
622.186	3037.44	0.385899	248.786	395.408	
622.366	3033	0.923017	248.86	392.103	
622.545	3027.35	0.701347	245.131	394.966	
622.725	3024.19	-0.702298	249.419	395.751	
622.904	3028.71	0.199592	247.321	394.295	
623.084	3019.61	1.26678	247.377	395.755	
623.263	3015.98	1.37363	249.326	391.894	
623.443	3011.03	0.557583	248.361	392.648	
623.622	3011.88	-0.594165	245.778	393.418	
623.802	3010.49	0.0647238	248.225	394.599	
623.981	3002.17	0.476769	250.437	396.038	
624.16	3005.16	-0.948979	249.662	393.64	
624.339	2998.25	1.29022	248.942	394.539	
624.519	2993.21	0.607531	247.902	395.165	
624.698	2989.57	1.00907	250.485	396.318	
624.877	2994.15	0.650102	249.139	395.333	
625.056	2981.21	0.230385	251.731	392.541	
625.235	2986.42	-0.159817	250.598	392.993	
625.415	2977.12	-0.384696	250.54	392.187	
625.594	2977.34	0.379547	250.321	391.505	
625.773	2970.33	0.889836	252.951	393.149	
625.952	2964.5	1.1808	252.578	393.443	
626.131	2969.72	0.820623	253.368	393.231	
626.31	2960.42	0.0356741	252.412	393.325	
626.489	2955.51	0.55959	253.639	390.064	
626.668	2955.47	0.119195	254.031	391.681	
626.847	2950.82	-0.370136	252.095	391.075	
627.026	2940.13	0.053721	253.183	392.102	
627.205	2940.04	0.526284	253.537	394.059	
627.383	2934.84	1.2671	251.577	389.463	
627.562	2929.13	0.383108	253.386	391.624	
627.741	2930.61	3.65126	253.941	391.358	
627.92	2922.52	-0.816509	254.957	392.442	
628.099	2922.24	-0.954258	254.567	393.704	
628.277	2915.76	0.390866	257.258	393.119	
628.456	2918.79	1.28954	257.374	392.776	
628.635	2909.51	0.922954	256.225	393.201	
628.813	2912.41	0.241838	255.678	394.553	
628.992	2901.98	-0.314525	257.874	392.576	
629.171	2896.75	0.889597	257.029	394.12	
629.349	2894.41	-0.23658	257.054	395.807	
629.528	2889.17	0.236685	258.919	395.913	
629.706	2881.11	3.0972	257.993	392.67	
629.885	2876.93	0.673934	259.268	392.436	
630.063	2868.38	1.2695	259.716	392.315	
630.242	2865.94	-0.0972637	259.607	390.974	
630.42	2861.37	-0.335071	262.021	394.933	
630.599	2860.56	-0.225262	260.401	393.386	
630.777	2856.3	-0.0731235	263.332	392.577	
630.955	2853.22	0.408683	263.348	391.321	
631.134	2835.04	0.913212	259.831	393.83	
631.312	2836.7	1.02072	262.689	394.69	
631.49	2833.33	2.80594	264.448	393.227	
631.669	2827.8	0.759579	266.057	392.061	
631.847	2820.78	1.40685	264.337	396.892	
632.025	2812.5	-0.719012	265.301	391.425	
632.203	2814.94	-1.40721	268.212	396.692	
632.381	2808.99	1.64258	267.897	393.54	
632.56	2810.48	0.781581	266.744	393.017	
632.738	2802.11	0.316118	270.889	394.629	
632.916	2792.01	-0.148728	269.688	392.389	
633.094	2791.96	-0.093231	270.252	393.814	
633.272	2786.9	0.0933255	269.615	396.434	
633.45	2781.04	1.90283	269.69	391.985	
633.628	2773.63	1.34995	273.234	393.091	
633.806	2767.8	0.9218	271.026	397.628	
633.984	2764.6	0.641463	272.614	395.903	
634.162	2760.06	-1.04672	274.057	394.472	
634.339	2747.84	-1.09895	271.586	395.55	
634.517	2748.33	-0.0437487	273.515	397.47	
634.695	2729.15	0.106281	273.708	392.909	
634.873	2732.39	-0.375494	276.645	395.886	
635.051	2719.64	0.407753	274.068	391.878	
635.229	2707.39	1.146	275.352	392.854	
635.406	2715.51	-0.144864	279.587	397.43	
635.584	2704.43	1.19686	277.532	396.63	
635.762	2702.76	1.3067	280.493	396.981	
635.939	2697.46	-0.284145	279.997	397.696	
636.117	2687.58	0.240265	281.753	397.775	
636.295	2686.55	-0.944463	281.15	394.57	
636.472	2678.52	-0.298165	283.481	397.164	
636.65	2675.98	0.0888275	283.711	398.637	
636.827	2672.74	1.17125	286.899	397.997	
637.005	2664.83	1.04974	284.118	394.118	
637.182	2654.99	0.65599	287.793	395.596	
637.36	2653.44	2.08781	288.367	398.868	
637.537	2635.63	4.72092	288.5	397.721	
637.715	2641	-0.0254949	287.926	397.172	
637.892	2630.86	0.805158	291.902	398.532	
638.069	2623.88	1.59031	292.356	398.632	
638.247	2623.21	-0.166378	291.765	398.717	
638.424	2615.83	1.88196	291.512	399.521	
638.601	2612.15	1.7063	296.027	399.752	
638.778	2600.38	-0.590255	294.745	397.419	
638.956	2598.63	-0.392814	294.928	398.649	
639.133	2592.11	1.50058	299.088	399.105	
639.31	2579.9	0.502347	295.685	396.734	
639.487	2573.49	1.16746	299.632	397.028	
639.664	2568.22	0.956876	299.838	398.759	
639.841	2571.48	0.919691	299.718	397.451	
640.019	2561	1.36166	301.464	399.028	
640.196	2555.88	0.077837	302.905	398.731	
640.373	2548.31	0.636882	302.348	401.151	
640.55	2545.75	-0.533708	306.064	401.741	
640.727	2531.2	0.0130076	305.438	403.364	
640.904	2526.94	-0.755443	305.681	400.806	
641.081	2527.43	0.228656	306.772	401.044	
641.257	2519.78	2.62907	308.534	403.124	
641.434	2510.37	0.380065	310.244	402.53	
641.611	2504.3	-1.30582	308.552	402.694	
641.788	2493.64	-0.0919713	312.731	400.848	
641.965	2493.21	2.15342	312.59	400.944	
642.142	2483.6	-0.546709	312.733	402.951	
642.318	2478	1.28026	315.332	403.543	
642.495	2469.38	0.626662	318.538	403.94	
642.672	2466.57	0.059549	317.288	403.612	
642.848	2457.41	0.515711	316.962	403.09	
643.025	2454.31	0.165421	320.506	405.026	
643.202	2445.69	-0.0530363	321.312	405.529	
643.378	2443.11	0.981959	323.779	405.565	
643.555	2434.59	0.657639	322.383	405.152	
643.731	2427.2	2.85808	322.954	404.443	
643.908	2426.42	1.66073	325.762	406.531	
644.084	2416.43	-0.413464	327.837	405.373	
644.261	2408.26	0.140605	327.321	407.555	
644.437	2400.58	0.688971	329.466	406.167	
644.614	2398.43	-0.228095	328.419	404.876	
644.79	2380.28	0.435867	331.683	403.948	
644.967	2382.04	1.37908	331.736	409.077	
645.143	2381.13	1.34726	335.107	409.274	
645.319	2375.41	1.64843	335.843	408.739	
645.496	2371.48	-0.927312	336.772	407.302	
645.672	2361.35	0.702312	339.374	407.467	
645.848	2352.77	0.426253	339.273	408.014	
646.024	2345.42	0.921231	338.801	407.938	
646.201	2346.79	1.05937	339.408	408.992	
646.377	2334.08	-0.563743	342.749	410.511	
646.553	2331.44	0.326641	344.749	409.397	
646.729	2331.87	2.84414	347.267	413.63	
646.905	2319.03	0.341062	346.396	409.675	
647.081	2309.03	3.56027	350.436	410.934	
647.257	2303.88	0.0272967	349.614	409.94	
647.433	2298.4	-0.232516	354.77	414.723	
647.609	2291.93	2.23167	351.364	413.34	
647.785	2291.41	-0.432494	354.732	409.697	
647.961	2277.35	0.287823	352.73	411.665	
648.137	2272.41	1.25628	359.075	415.139	
648.313	2269.25	-1.35539	359.956	413.965	
648.489	2261.04	0.172204	360.879	414.17	
648.665	2254.64	-1.64203	359.73	414.876	
648.841	2248.62	3.0298	361.876	416.091	
649.016	2246.8	1.53647	364.656	418.03	
649.192	2239.27	-0.400348	365.921	417.621	
649.368	2231.11	0.490587	368.369	419.892	
649.544	2223.67	1.46279	368.197	417.945	
649.719	2218.72	1.09175	369.006	414.45	
649.895	2211.39	1.39098	372.92	420.532	
650.071	2199.22	0.379916	372.163	415.865	
650.246	2193.7	-0.373585	373.899	417.184	
650.422	2186.08	0.760962	373.063	418.905	
650.597	2179.28	-1.01791	372.494	413.926	
650.773	2175.01	1.48848	377.685	419.016	
650.949	2167.5	0.325584	378.342	420.576	
651.124	2163.81	1.23585	378.011	418.442	
651.3	2154.16	0.0694018	377.294	416.644	
651.475	2148.72	-0.285063	382.817	418.299	
651.65	2135.06	-1.08359	381.025	419.969	
651.826	2133.84	1.39116	384.105	421.226	
652.001	2125.92	0.459401	385.231	418.526	
652.177	2123.2	1.47143	387.414	419.818	
652.352	2112.72	-0.0766209	387.351	422.876	
652.527	2108.92	-0.703891	391.882	421.408	
652.702	2100	-0.306702	390.576	422.431	
652.878	2083.59	0.229255	391.933	418.147	
653.053	2082.08	1.3651	393.134	421.458	
653.228	2076.13	-0.900853	393.436	421.485	
653.403	2071.61	0.809817	395.526	424.428	
653.578	2068.45	0.300991	398.791	423.431	
653.754	2063.06	0.729242	398.404	422.385	
653.929	2052.09	1.81859	402.891	424.528	
654.104	2049.69	-1.40324	404.548	423.749	
654.279	2037.37	0.699616	404.716	424.609	
654.454	2033.23	1.0529	405.038	426.634	
654.629	2028.55	1.56916	404.528	427.692	
654.804	2024.55	1.10316	409.59	423.549	
654.979	2019.19	0.527076	410.501	428.375	
655.154	2014.38	2.74272	413.23	425.982	
655.329	2001.48	1.68468	411.123	424.694	
655.503	1988.7	1.79583	412.731	427.673	
655.678	1988.23	0.94068	414.25	426.161	
655.853	1977.17	-0.266824	417.444	428.327	
656.028	1967.74	0.933405	414.366	426.297	
656.203	1966.15	0.604888	418.911	428.054	
656.377	1955.28	0.680519	418.54	429.695	
656.552	1949.84	2.34424	419.619	426.612	
656.727	1942.45	-0.422551	422.361	429.568	
656.902	1936.08	1.48467	421.246	427.86	
657.076	1931.11	2.24764	424.972	428.425	
657.251	1924.57	-0.176083	425.872	430.215	
657.425	1921.88	-1.3662	425.713	427.614	
657.6	1910.12	0.338058	428.994	431.247	
657.775	1905.37	0.921119	427.542	429.253	
657.949	1900.6	1.08325	434.168	429.948	
658.124	1892.25	1.38473	433.33	428.316	
658.298	1890.67	-0.0845062	436.674	431.862	
658.472	1882.49	-0.617976	436.415	429.721	
658.647	1876.36	0.507443	435.393	429.661	
658.821	1869.71	0.316632	443.158	430.844	
658.996	1863.77	0.775412	437.126	428.972	
659.17	1861.53	0.296066	442.313	432.491	
659.344	1850.34	1.26781	441.25	435.381	
659.519	1847.13	2.76605	444.778	433.512	
659.693	1841.42	1.79043	446.315	433.51	
659.867	1835.03	1.67766	446.856	436.024	
660.041	1833.86	-1.05139	448.565	437.017	
660.216	1829.02	1.77	451.373	437.175	
660.39	1823.97	0.551126	457.336	435.974	
660.564	1817.27	-0.536723	454.651	437.82	
660.738	1816.08	1.20821	457.645	438.85	
660.912	1805.34	-0.33846	455.813	435.036	
661.086	1800.09	0.649264	458.324	439.811	
661.26	1790.94	-0.781313	460.808	436.29	
661.434	1784.47	1.82605	459.277	439.818	
661.608	1780.57	-0.28184	464.984	438.679	
661.782	1774.67	0.331285	462.006	440.649	
661.956	1765.43	0.429216	464.02	437.352	
662.13	1758.37	-0.393994	463.191	439.106	
662.304	1753.44	0.140702	468.054	439.585	
662.478	1745.78	1.17917	466.982	440.381	
662.652	1742.51	-0.140541	470.089	441.864	
662.826	1734.72	-0.534514	470.358	439.483	
662.999	1726.75	-0.892934	472.876	446.181	
663.173	1718.11	0.421728	473.329	442.847	
663.347	1719.92	1.78861	476.94	441.989	
663.521	1707.97	0.802077	477.177	442.538	
663.694	1702.15	-0.913572	476.437	441.417	
663.868	1696.77	2.35492	478.766	444.04	
664.042	1688.9	-0.0912431	479.745	442.616	
664.215	1684.68	-0.0281352	483.578	442.923	
664.389	1683.53	-1.02063	483.837	443.106	
664.562	1674.99	1.33564	486.851	444.813	
664.736	1667.9	1.78746	486.415	443.656	
664.909	1664.29	1.32056	487.449	445.443	
665.083	1657.47	-0.827343	487.761	445.412	
665.256	1648.33	-0.448444	491.836	445.1	
665.43	1640.33	1.15544	490.57	446.267	
665.603	1638.69	0.8008	491.136	444.68	
665.777	1629.06	3.22085	493.588	446.769	
665.95	1625.64	-0.329593	493.434	446.215	
666.123	1617.31	2.19434	493.026	445.47	
666.297	1611.62	2.24247	494.357	448.013	
666.47	1607.03	0.442202	497.496	447.193	
666.643	1595.06	-0.266191	495.692	445.792	
666.816	1595.46	0.806495	499.721	448.666	
666.99	1581.01	-0.00698295	497.319	445.622	
667.163	1579.59	1.59008	500.043	448.161	
667.336	1572.01	-2.02086	503.657	447.786	
667.509	1557.7	1.05809	499.756	443.348	
667.682	1555.21	0.0417947	503.61	445.747	
667.855	1550.87	-1.92745	505.402	445.538	
668.029	1539.8	0.474028	503.917	445.454	
668.202	1540.22	2.73944	506.384	447.844	
668.375	1532.88	1.25037	506.428	447.891	
668.548	1522.05	0.740826	508.111	448.425	
668.721	1517.42	0.586827	508.237	447.551	
668.893	1512.02	0.118819	513.308	445.744	
669.066	1503.18	-0.0976718	506.631	444.284	
669.239	1495.46	0.62766	508.995	446.09	
669.412	1492.65	1.04834	509.65	447.262	
669.585	1486.58	1.70165	511.326	446.027	
669.758	1478.63	0.835654	514.934	446.62	
669.931	1468.36	-0.152802	514.993	445.283	
670.103	1467.15	-0.724214	516.272	449.004	
670.276	1463.68	0.340687	515.773	443.44	
670.449	1454.11	-0.208278	514.65	446.034	
670.622	1441.63	-0.249726	515.629	444.966	
670.794	1436.89	0.388264	520.68	449.036	
670.967	1432.48	0.360279	520.136	446.533	
671.139	1426.98	0.374516	521.298	447.713	
671.312	1416.86	0.533191	520.314	443.82	
671.485	1408.57	0.752582	518.186	446.495	
671.657	1407.24	-0.808912	521.281	446.934	
671.83	1398.86	0.490678	522.733	445.193	
672.002	1395.02	1.1751	524.008	443.755	
672.175	1385.97	0.331559	522.337	448.887	
672.347	1378.21	-1.15774	522.298	443.093	
672.519	1373.52	-0.330722	522.387	444.966	
672.692	1370.46	1.10319	521.775	448.207	
672.864	1366.4	1.66143	527.237	446.188	
673.037	1360.62	0.400333	528.442	447.386	
673.209	1350.45	0.399214	526.722	445.938	
673.381	1345.26	1.18213	521.616	446.565	
673.553	1337.49	0.604857	527.463	445.349	
673.726	1333.61	-0.51582	530.77	445.648	
673.898	1327.7	0.611925	532.132	444.331	
674.07	1324.52	-0.0206359	530.472	447.744	
674.242	1313.94	0.858415	531.29	443.755	
674.414	1305.94	2.04486	531.97	445.852	
674.587	1301.82	2.82534	533.994	444.73	
674.759	1300.68	0.460794	533.858	446.583	
674.931	1292.79	1.33831	536.345	446.735	
675.103	1283.96	0.0685178	536.394	447.435	
675.275	1279.97	0.728038	535.476	444.678	
675.447	1274.82	-0.452833	537.412	446.799	
675.619	1267.32	0.212636	535.375	444.376	
675.791	1263.19	0.0205668	535.587	443.013	
675.963	1257.21	0.521825	539.125	447.097	
676.134	1254.4	0.996153	540.245	445.919	
676.306	1250.12	0.261335	539.359	448.029	
676.478	1240.08	-0.562809	540.555	447.669	
676.65	1234.73	-0.412112	540.087	444.866	
676.822	1232.29	1.97779	542.779	447.827	
676.994	1226	0.80317	544.634	447.887	
677.165	1222.05	0.31593	543.553	445.775	
677.337	1214.24	1.81659	543.444	446.239	
677.509	1210.76	-0.500622	542.565	445.458	
677.68	1202.89	2.1013	546.325	447.074	
677.852	1200.83	-1.36536	546.692	446.679	
678.024	1192.75	2.14588	543.579	445.96	
678.195	1190.13	-1.58904	547.227	445.189	
678.367	1187.54	1.95674	547.025	446.823	
678.538	1178.77	-0.144531	546.765	447.52	
678.71	1168.44	1.01119	547.68	445.14	
678.881	1167.23	-0.516552	546.654	444.331	
679.053	1163.38	-0.0551435	550.675	446.339	
679.224	1157.24	0.489123	548.64	444.776	
679.396	1149.44	-0.1793	547.162	444.064	
679.567	1145.42	1.26786	546.816	445.732	
679.738	1137.09	0.58658	552.181	445.446	
679.91	1135.15	-0.469054	548.98	446.8	
680.081	1129.85	-0.297009	552.841	448.313	
680.252	1123.07	0.137982	551.557	443.931	
680.424	1113.82	-0.00690518	549.236	446.51	
680.595	1112.95	3.10281	552.698	444.215	
680.766	1103.83	0.152225	549.726	446.282	
680.937	1096.1	1.68642	549.089	440.094	
681.108	1093.18	1.14128	549.348	440.269	
681.28	1090.06	0.686573	548.287	444.747	
681.451	1083.24	0.283896	551.149	444.145	
681.622	1077.44	1.86144	550.786	442.652	
681.793	1070.38	0.0415455	552.489	441.516	
681.964	1065.64	0.290525	548.161	441.842	
682.135	1063.49	-0.353605	550.55	442.273	
682.306	1055.53	-0.131837	553.865	440.67	
682.477	1053.03	1.69597	550.45	440.606	
682.648	1047.18	-0.0693928	548.936	438.949	
682.819	1040.29	-0.409793	550.46	439.099	
682.99	1040.04	0.788017	551.809	439.674	
683.16	1028.39	2.48384	549.161	440.902	
683.331	1024.37	0.257815	553.351	438.868	
683.502	1017.28	0.0906378	550.89	440.335	
683.673	1014.08	1.63283	554.024	442.121	
683.844	1008.54	0.160358	550.687	436.136	
684.014	1002.4	0.502255	550.246	441.028	
684.185	999.344	0.0699654	555.87	438.562	
684.356	991.739	1.29336	549.891	439.804	
684.526	989.894	2.02867	552.123	439.59	
684.697	982.952	0.693354	549.499	438.328	
684.868	978.206	-0.630148	551.087	437.311	
685.038	973.135	-0.70192	553.331	437.35	
685.209	967.328	-0.407246	547.378	435.456	
685.379	960.922	2.68157	549.481	434.169	
685.55	956.555	-0.899441	549.296	435.952	
685.72	948.789	2.86136	545.638	436.082	
685.891	948.521	-0.36645	548.296	436.13	
686.061	940.949	1.47782	552.409	430.876	
686.232	937.695	0.098681	546.958	433.404	
686.402	932.934	0.141434	554.115	432.434	
686.572	927.631	3.65131	548.373	432.524	
686.743	920.377	-0.0422453	546.621	429.836	
686.913	916.586	1.4436	547.409	433.006	
687.083	912.174	-0.579724	547.085	428.783	
687.254	908.943	3.59681	549.808	430.317	
687.424	900.241	-0.481886	546.771	430.622	
687.594	897.437	0.134888	546.286	429.36	
687.764	893.471	-0.859565	543.898	429.598	
687.934	888.048	0.463093	547.492	426.969	
688.104	882.165	-1.03997	543.047	426.371	
688.275	880.103	-0.164225	544.273	426.34	
688.445	873.013	-0.534873	542.696	426.783	
688.615	868.472	1.99396	542.216	427.724	
688.785	865.939	0.164604	544.649	424.249	
688.955	859.751	-1.7253	545.402	427.042	
689.125	856.182	-1.65117	544.116	421.809	
689.295	851.016	0.172388	543.863	424.556	
689.465	845.421	2.07639	539.344	424.316	
689.635	841.672	0.331358	544.145	422.359	
689.805	834.393	1.80295	539.233	421.079	
689.974	832.362	1.34514	535.879	425.085	
690.144	827.082	1.95493	539.589	422.534	
690.314	821.94	0.0725768	536.456	419.971	
690.484	816.437	-1.25013	537.997	420.785	
690.654	815.646	1.38271	539.155	418.738	
690.823	808.871	-0.954699	537.491	420.425	
690.993	805.503	0.973307	536.168	420.639	
691.163	805.436	-0.755451	540.82	417.943	
691.332	799.211	0.719442	535.832	419.767	
691.502	793.651	-0.757223	536.192	419.448	
691.672	788.567	0.773661	533.833	413.216	
691.841	786.456	-1.17209	533.794	417.715	
692.011	781.191	-0.185165	538.022	417.788	
692.18	777.731	2.46519	537.226	418.323	
692.35	771.403	1.98989	532.072	413.346	
692.519	771.35	0.335013	535.096	414.119	
692.689	765.514	0.411386	535.372	416.444	
692.858	761.65	1.40447	532.158	413.326	
693.027	759.029	0.517648	529.644	413.836	
693.197	755.646	0.923617	529.665	414.526	
693.366	750.676	1.07011	529.884	411.92	
693.536	746.502	0.362251	533.656	415.296	
693.705	739.329	0.829081	529.743	415.028	
693.874	737.404	0.121069	528.226	405.719	
694.043	731.374	0.979113	527.704	415.296	
694.213	728.099	1.14533	524.844	409.375	
694.382	726.791	1.68695	526.215	409.681	
694.551	722.328	0.879564	526.948	408.678	
694.72	717.013	0.00766925	523.658	408.926	
694.889	714.247	1.37535	526.661	407.745	
695.058	709.637	2.10341	523.968	410.549	
695.228	704.777	-0.595564	521.193	407.546	
695.397	699.884	0.504323	522.769	407.731	
695.566	699.816	0.723972	520.613	403.091	
695.735	695.664	-0.273293	519.044	404.131	
695.904	689.084	1.61841	518.859	403.146	
696.073	684.838	-0.274629	519.896	403.296	
696.242	683.855	0.534182	519.568	403.331	
696.41	680.596	2.76424	521.155	400.028	
696.579	676.296	1.05263	516.834	399.646	
696.748	673.073	0.00794636	516.158	399.559	
696.917	670.942	-0.0954886	509.718	401.02	
697.086	665.671	-0.303547	513.857	396.752	
697.255	661.587	-1.69586	513.506	400.795	
697.423	656.725	-0.313461	510.732	397.404	
697.592	654.572	0.620233	511.121	403.023	
697.761	649.796	1.55885	509.366	397.527	
697.929	649.069	0.194752	507.928	396.675	
698.098	643.819	1.42409	508.756	396.7	
698.267	638.484	-0.579528	509.016	395.504	
698.435	637.978	0.827182	508.064	394.607	
698.604	633.465	1.17404	503.798	393.974	
698.772	627.589	3.69871	502.189	390.57	
698.941	627.554	1.11368	504.601	388.476	
699.109	623.574	-0.555194	502.282	390.829	
699.278	620.78	2.427	503.245	392.035	
699.446	613.413	-0.824648	497.399	390.222	
699.615	613.067	1.77035	501.699	387.907	
699.783	609.513	0.167554	495.478	387.042	
699.952	603.408	3.81276	495.077	386.041	
700.12	600.091	0.538304	493.762	386.83	
700.288	595.504	1.77281	495.216	385.263	
700.457	595.364	-0.0338501	496.744	385.547	
700.625	590.971	4.45718	490.674	384.494	
700.793	585.663	1.91801	487.409	381.607	
700.961	585.946	1.55905	490.725	380.768	
701.13	579.899	2.75336	488.312	379.374	
701.298	579.295	0.660287	486.349	380.503	
701.466	575.98	1.28223	485.825	382.099	
701.634	571.674	0.826479	482.736	377.905	
701.802	565.11	-0.702592	485.841	375.797	
701.97	563.548	-0.851767	481.011	377.321	
702.138	562.525	-0.532752	483.218	375.678	
702.306	557.89	0.849041	480.015	375.27	
702.474	554.145	-1.33474	479.3	373.253	
702.642	551.163	-0.264524	480.012	371.498	
702.81	548.892	0.91732	472.472	370.891	
702.978	545.791	1.7243	477.753	371.996	
703.146	544.92	-0.231019	471.598	367.847	
703.314	541.142	0.249641	476.122	367.202	
703.482	538.321	0.546055	469.837	370.413	
703.65	531.941	-0.572461	473.998	367.407	
703.818	531.757	3.00244	470.776	370.575	
703.985	529.309	0.0993109	466.517	366.905	
704.153	524.234	2.28464	468.018	366.267	
704.321	522.503	-1.91746	461.82	363.978	
704.488	518.242	1.57967	464.601	363.672	
704.656	516.108	1.784	459.505	361.735	
704.824	512.782	1.42337	460.289	363.04	
704.991	510.538	-0.212251	463.139	363.934	
705.159	509.92	1.7141	458.686	362.357	
705.327	505.386	0.482026	457.629	358.195	
705.494	501.914	1.99914	456.11	358.819	
705.662	499.069	-0.345066	451.173	358.875	
705.829	495.981	0.439293	453.609	354.503	
705.997	492.473	0.60004	452.761	358.755	
706.164	488.828	-0.461159	449.482	356.529	
706.332	485.419	2.23378	449.091	353.236	
706.499	484.388	1.92602	449.676	353.343	
706.666	482.559	2.66003	446.088	352.163	
706.834	477.479	0.773547	443.538	352.082	
707.001	474.285	-0.708503	442.562	347.904	
707.168	471.518	0.32753	443.277	348.967	
707.336	472.43	-0.630644	442.476	347.588	
707.503	468.389	3.94127	439.506	347.218	
707.67	468.787	0.802181	440.323	347.55	
707.837	461.639	2.99581	437.333	345.501	
708.004	459.159	1.7497	434.814	341.988	
708.172	456.741	5.11708	430.65	340.797	
708.339	456.491	-1.39639	435.931	339.769	
708.506	452.424	-1.81404	426.752	340.601	
708.673	451.645	1.58654	430.824	337.095	
708.84	447.013	2.52714	425.399	339.222	
709.007	444.848	1.09138	430.003	338.988	
709.174	442.741	1.15723	428.956	335.363	
709.341	440.214	0.30516	425.023	335.476	
709.508	440.112	2.97158	423.468	336.814	
709.675	436.438	1.09148	429.038	334.615	
709.842	433.2	0.340842	419.955	335.364	
710.009	429.467	0.197313	421.533	333.33	
710.175	429.293	-0.928528	416.847	331.784	
710.342	429.718	2.10749	420.785	332.99	
710.509	424.241	1.08448	418.134	334.535	
710.676	422.752	-0.465377	418.969	330.089	
710.843	421.547	-0.276724	416.168	329.71	
711.009	420.026	1.30317	415.515	325.112	
711.176	416.882	0.495403	417.23	331.647	
711.343	412.096	2.01417	407.971	330.528	
711.509	414.155	-1.03245	410.057	327.824	
711.676	406.669	1.23978	412.36	323.256	
711.843	408.095	-1.07486	411.25	324.823	
712.009	402.817	0.517434	409.639	320.428	
712.176	401.821	1.37133	402.426	323.685	
712.342	402.49	2.00718	403.839	320.89	
712.509	397.705	0.411703	399.3	318.257	
712.675	395.848	0.784923	403.237	316.485	
712.842	394.36	-2.99739	399.934	314.933	
713.008	390.215	2.00607	396.999	316.756	
713.174	391.471	-1.59306	398.473	314.799	
713.341	385.299	-1.6107	391.883	314.889	
713.507	385.502	0.447644	393.51	313.929	
713.673	382.02	-0.854167	391.79	312.144	
713.84	380.018	1.2056	392.09	313.069	
714.006	378.026	-2.10079	390.269	314.796	
714.172	377.042	-0.0468943	388.856	307.494	
714.339	373.814	3.71569	382.857	309.288	
714.505	372.33	0.427092	385.067	307.874	
714.671	367.613	2.42327	383.487	308.294	
714.837	368.112	2.50074	383.236	307.735	
715.003	367.342	-1.11041	379.577	305.509	
715.169	364.823	0.628483	376.599	304.283	
715.335	361.553	4.16836	376.323	299.802	
715.501	358.165	-1.20095	379.12	300.977	
715.667	358.996	1.76821	375.225	299.38	
715.833	355.024	3.59984	368.895	301.764	
715.999	356.358	3.37377	372.294	298.737	
716.165	351.082	1.19134	368.672	293.346	
716.331	356.401	1.96774	369.014	291.524	
716.497	345.904	1.32228	369.628	300.59	
716.663	347.545	0.0127662	367.18	296.668	
716.829	343.702	1.52945	362.63	292.798	
716.995	348.509	3.17664	367.038	295.509	
717.161	341.797	5.5387	363.182	293.894	
717.326	341.199	-0.313494	356.857	291.197	
717.492	338.501	-0.224164	362.302	291.493	
717.658	335.379	2.43412	361.59	285.832	
717.823	336.026	0.708154	357.23	289.354	
717.989	333.327	2.24178	359.391	282.607	
718.155	327.256	-1.45735	355.579	288.784	
718.32	328.327	-0.487997	351.457	282.55	
718.486	326.179	0.274031	355.308	285.933	
718.651	324.085	5.2396	353.914	287.399	
718.817	322.741	-0.415761	349.766	281.581	
718.983	320.812	2.31905	348.333	279.46	
719.148	321.153	6.06932	345.674	276.203	
719.314	318.934	0.170151	344.745	275.786	
719.479	317.679	-1.32521	340.393	275.795	
719.644	315.013	3.71769	344.071	275.411	
719.81	311.1	2.01863	343.922	277.98	
719.975	313.383	3.28028	339.064	273.7	
720.141	308.642	-1.27453	333.82	280.153	
720.306	307.005	2.3093	332.426	272.022	
720.471	304.833	-1.03544	331.621	272.947	
720.636	302.44	1.33955	330.858	271.124	
720.802	300.158	2.25491	332.804	269.216	
720.967	300.625	6.25323	333.662	271.483	
721.132	298.979	-0.36385	327.238	268.82	
721.297	297.355	2.3545	326.053	267.751	
721.462	298.725	0.0154053	327.836	266.78	
721.628	292.586	0.0308944	323.944	261.228	
721.793	293.14	-0.249004	323.326	262.217	
721.958	291.381	-1.2212	322.62	261.404	
722.123	291.049	1.27798	322.999	263.465	
722.288	288.748	-1.8722	319.062	256.444	
722.453	289.42	-2.35067	319.296	263.808	
722.618	284.517	6.01873	315.82	261.892	
722.783	284.44	-0.955149	317.147	261.187	
722.948	282.645	0.342145	314.671	255.42	
723.112	278.278	1.50473	310.929	253.193	
723.277	280.609	0.988291	311.323	250.049	
723.442	277.984	-0.912402	312.893	257.319	
723.607	275.528	-1.59804	306.113	250.792	
723.772	272.013	2.9654	304.901	247.826	
723.937	272.584	3.52719	303.293	249.77	
724.101	269.217	-1.18635	304.661	249.128	
724.266	269.7	-0.118983	303.185	245.903	
724.431	267.666	4.64852	300.41	249.881	
724.595	270.475	2.09951	302.341	246.813	
724.76	261.742	3.15914	302.702	245.273	
724.925	262.734	-1.33791	301.904	244.912	
725.089	263.618	-0.894453	294.293	244.776	
725.254	261.787	-3.75787	298.06	247.136	
725.418	257.551	0.26468	294.46	241.524	
725.583	259.923	0.992276	294.169	244.378	
725.747	256.196	-2.2281	292.962	243.707	
725.912	254.18	7.08797	296.45	245.609	
726.076	254.851	4.54995	294.736	242.134	
726.241	252.051	0.0723037	287.66	234.276	
726.405	251.087	5.80726	290.701	233.774	
726.57	250.171	-3.28356	286.867	230.804	
726.734	248.584	2.4952	284.379	236.188	
726.898	248.035	-1.01337	286.991	233.866	
727.062	247.474	13.6511	288.895	232.247	
727.227	245.312	2.62416	288.093	231.515	
727.391	243.641	-2.13621	283.529	232.248	
727.555	244.894	0.99535	277.314	228.549	
727.719	239.618	-0.470911	284.637	233.591	
727.884	238.427	-3.20542	273.12	228.685	
728.048	235.235	-3.19468	271.145	228.423	
728.212	238.729	-1.61483	279.689	232.764	
728.376	237.406	4.90066	279.166	230.732	
728.54	233.404	-3.40095	273.439	222.233	
728.704	229.27	2.15096	274.85	222.1	
728.868	233.234	1.8098	267.716	225.423	
729.032	229.406	0.773844	271.542	221.758	
729.196	227.297	2.71053	268.516	227.149	
729.36	226.16	6.08676	268.231	217.508	
729.524	228.75	1.12532	267.224	216.649	
729.688	224.401	-4.57402	265.456	219.911	
729.852	223.757	1.78004	266.197	218.143	
730.015	222.225	0.550159	260.474	217.051	
730.179	223.108	-0.94188	260.711	216.757	
730.343	219.663	6.30876	261.859	214.938	
730.507	217.977	5.75022	256.975	218.049	
730.671	220.137	-0.954438	259.978	217.758	
730.834	217.319	-1.32705	257.857	217.253	
730.998	213.474	-0.731345	257.954	211.635	
731.162	215.099	11.3043	252.898	210.127	
731.325	214.776	-2.08771	254.151	208.486	
731.489	214.9	5.66259	253.909	209.999	
731.652	215.107	1.22941	253.344	208.663	
731.816	209.318	0.896137	257.503	207.718	
731.98	206.975	0.514913	248.532	205.556	
732.143	210.802	-0.0797586	253.486	211.081	
732.307	204.129	4.20476	245.787	200.235	
732.47	205.139	-5.48892	245.596	201.778	
732.633	203.235	3.29214	246.006	205.769	
732.797	205.705	2.0974	248.625	204.48	
732.96	203.412	0.933631	244.737	200.241	
733.124	198.576	0.677868	243.062	196.343	
733.287	201.605	3.74894	242.897	198.893	
733.45	199.405	3.01828	244.54	196.883	
733.614	197.244	3.28973	237.605	199.59	
733.777	195.579	-0.677018	237.043	195.824	
733.94	196.416	0.637781	239.706	197.851	
734.103	195.656	6.70286	235.714	194.211	
734.266	194.36	-0.139827	239.457	188.987	
734.43	197.597	3.86546	237.533	195.159	
734.593	194.04	0.3	234.8	192.8	
734.756	190.588	0.499287	239.791	197.784	
734.919	189.682	4.68425	232.764	194.161	
735.082	187.43	2.13102	230.256	193.146	
735.245	188.485	0.676216	228.72	193.65	
735.408	185.679	6.85036	235.555	195.145	
735.571	183.941	3.97053	229.366	189.661	
735.734	184.073	-0.218638	229.855	190.235	
735.897	183.279	-2.02409	231.11	187.585	
736.06	181.018	1.58215	228.383	186.39	
736.223	176.159	1.71969	224.053	189.989	
736.386	177.486	-1.75983	224.5	184.954	
736.549	180.265	-5.11489	220.928	188.145	
736.711	179.1	3.19398	220.529	188.524	
736.874	173.588	-0.0392288	226.749	185.101	
737.037	174.675	3.38221	219.365	180.561	
737.2	172.593	-3.35342	216.188	178.928	
737.362	175.21	-3.86838	214.337	179.235	
737.525	171.784	1.04995	216.601	184.195	
737.688	169.935	4.79537	211.747	177.383	
737.85	170.066	1.50224	215.92	179.632	
738.013	170.923	4.764	215.613	180.432	
738.176	170.175	-1.48835	213.492	182.372	
738.338	165.832	-0.0769882	211.871	176.97	
738.501	168.377	7.35336	209.815	180.555	
738.663	167.462	-0.0382552	206.597	174.08	
738.826	161.061	1.12818	203.371	175.709	
738.988	164.911	1.27912	206.613	170.976	
739.151	162.261	0.746073	212.044	173.019	
739.313	161.077	3.07863	207.117	172.277	
739.475	160.974	2.2368	205.331	176.581	
739.638	160.191	3.71484	203.285	169.908	
739.8	159.829	3.20526	200.731	170.564	
739.962	159.624	-0.954043	200.779	167.918	
740.125	158.173	8.10663	199.995	171.727	
740.287	158.607	3.1848	200.68	173.674	
740.449	156.517	0.14806	198.677	165.364	
740.611	154.436	7.96212	197.237	165.315	
740.774	156.51	-3.99654	198.519	159.72	
740.936	151.901	1.23793	192.115	159.832	
741.098	154.169	-0.109924	196.209	164.27	
741.26	151.852	1.94403	198.066	161.851	
741.422	150.941	4.37011	195.676	164.366	
741.584	147.904	11.9658	195.075	161.746	
741.746	145.494	-4.06598	193.926	160.702	
741.908	146.922	1.41703	190.115	161.834	
742.07	142.67	3.86029	194.963	161.423	
742.232	148.992	-2.9752	187.788	155.839	
742.394	141.46	-2.21032	182.903	154.434	
742.556	144.89	4.83553	189.541	153.319	
742.718	142.217	-2.06975	188.248	157.611	
742.88	139.634	-2.21392	184.185	154.608	
743.042	138.588	7.5414	187.755	154.18	
743.203	141.332	2.04427	185.463	154.395	
743.365	137.984	-1.05955	182.966	156.448	
743.527	136.112	1.89427	183.905	148.144	
743.689	134.891	1.50812	179.987	152.338	
743.85	136.17	-1.37992	182.746	150.378	
744.012	134.433	3.39092	175.293	151.387	
744.174	131.883	-3.6174	178.746	153.108	
744.335	131.322	3.49808	178.222	152.648	
744.497	134.662	2.79743	176.724	147.912	
744.658	130.156	4.79468	174.995	150.799	
744.82	130.541	0.962304	171.898	147.785	
744.982	130.532	3.14335	173.325	145.862	
745.143	127.448	2.94276	173.447	147.601	
745.305	129.686	0.872363	175.307	148.752	
745.466	127.993	-3.04707	172.318	143.431	
745.627	125.44	0.587693	172.776	146.276	
745.789	125.767	-1.4003	168.14	145.181	
745.95	123.728	0.146405	171.776	141.953	
746.112	124.637	4.33406	167.972	142.474	
746.273	122.73	0.274455	166.885	146.274	
746.434	120.88	6.26406	169.253	140.235	
746.596	122.672	6.71251	166.566	140.122	
746.757	118.42	-0.0957318	163.329	137.162	
746.918	121.987	2.88887	168.039	138.671	
747.079	120.081	-4.25864	165.39	136.841	
747.24	118.076	3.59052	163.572	139.424	
747.402	119.76	-0.836597	163.747	139.543	
747.563	117.36	0.157193	161.228	132.566	
747.724	119.215	5.47286	159.093	135.69	
747.885	114.402	0.96779	160.055	131.906	
748.046	114.5	-0.977439	157.574	135.492	
748.207	115.806	3.69549e-08	157.532	135.923	
748.368	118.646	2.35065	156.699	133.193	
748.529	115.265	2.25737	156.893	132.051	
748.69	111.372	2.43117	156.251	132.555	
748.851	111.091	0.229874	157.387	129.292	
749.012	112.574	-1.16261	152.811	130.069	
749.173	112.741	-0.959567	153.515	128.689	
749.334	108.188	0.2422	154.392	129.012	
749.494	109.482	-0.634063	150.288	126.435	
749.655	110.754	-1.63757	154.182	129.293	
749.816	109.774	1.18294	148.92	127.857	
749.977	108.07	0.446999	151.051	125.324	
750.137	107.196	1.84384	148.96	127.002	
750.298	109.788	-1.20271	149.285	126.171	
750.459	106.163	1.64033	148.107	122.493	
750.62	107.03	-0.870525	146.715	122.223	
750.78	104.422	0.587711	146.967	126.348	
750.941	104.781	0.705696	145.54	124.712	
751.101	105.004	2.76403	146.581	123.865	
751.262	103.331	1.13551	141.764	118.908	
751.422	102.517	3.84656	147.18	120.856	
751.583	101.523	6.34608	142.386	122.005	
751.743	102.514	-1.08626	143.275	121.695	
751.904	100.561	-1.38188	138.668	118.42	
752.064	98.9765	1.22621	137.186	120.837	
752.225	98.9691	2.41423	144.782	117.574	
752.385	98.3721	4.97017	138.434	118.477	
752.545	98.3788	1.51462	139.788	117.259	
752.706	97.5953	5.63599	136.515	115.73	
752.866	96.8999	1.55051	136.355	116.345	
753.026	94.7577	3.37049	134.526	118.076	
753.187	94.8739	-1.19209e-09	132.754	114.234	
753.347	94.9062	1.14618	133.937	113.797	
753.507	96.1332	4.6984	137.598	113.776	
753.667	92.8395	1.08329	133.634	110.843	
753.827	92.7974	-2.20679	134.642	113.699	
753.988	90.7521	2.53999	134.984	113.327	
754.148	91.1854	2.88455	130.953	111.209	
754.308	92.6175	-1.67406	128.108	106.717	
754.468	90.4563	-1.1981	130.425	110.457	
754.628	91.31	0.95911	130.059	112.128	
754.788	90.3771	2.95613	127.188	106.832	
754.948	89.0223	3.87595	127.689	108.217	
755.108	87.0647	2.19013	126.917	106.217	
755.268	89.2208	1.31635	125.206	108.255	
755.428	88.7419	-0.995856	128.94	108.977	
755.587	87.9137	-0.454584	126.09	108.687	
755.747	87.102	3.80202	122.243	105.85	
755.907	88.3075	5.08541	123.241	106.702	
756.067	87.0181	2.37672	124.075	105.849	
756.227	84.6015	-0.451902	122.853	103.773	
756.386	83.0476	-0.0822661	123.847	103.92	
756.546	85.0654	1.12234	120.953	100.651	
756.706	83.9144	-0.655902	122.116	101.391	
756.866	83.99	2.53854	120.207	102.829	
757.025	83.7093	-2.55278	117.032	100.923	
757.185	82.5018	1.78788	119.724	98.4335	
757.344	82.6464	-1.41929	119.543	97.5716	
757.504	82.6842	0.817441	116.167	101.998	
757.664	82.0058	2.77986	116.118	97.9946	
757.823	80.9951	-0.639364	119.742	101.196	
757.983	79.3631	-2.06809	118.666	97.1233	
758.142	76.8823	0.953705	117.338	97.673	
758.302	78.3287	4.12256	115.387	96.0846	
758.461	77.234	2.04818	114.449	97.1325	
758.62	78.1806	-0.326036	113.076	93.3775	
758.78	77.3608	-2.26534	115.628	99.3948	
758.939	75.3866	-2.91767	110.997	95.8238	
759.098	77.3443	2.97999	115.244	94.7457	
759.258	77.0326	-0.242963	110.489	92.9872	
759.417	76.435	-0.0810838	111.342	98.0077	
759.576	76.2495	1.41904	109.261	93.9897	
759.735	75.1248	0.121452	107.008	95.5827	
759.895	75.6457	0.60646	108.085	91.1037	
760.054	73.4694	1.68693	106.061	91.036	
760.213	73.2314	-2.184	113.06	94.7254	
760.372	71.3716	1.99943	108.348	92.136	
760.531	72.6458	-2.19405	108.796	93.3613	
760.69	74.0854	3.23988	107.821	93.8712	
760.849	72.1517	1.84383	104.69	91.7698	
761.008	71.1742	1.06431	106.508	91.8676	
761.167	69.6366	-2.17993	107.624	89.8166	
761.326	69.2653	4.37026	106.339	87.1094	
761.485	69.9744	2.02629	104.138	91.2144	
761.644	70.2892	1.78461	105.184	87.3827	
761.803	69.9587	1.80626	105.814	85.9095	
761.962	70.373	1.05357	103.574	90.3368	
762.121	68.9675	1.43288	101.816	85.9999	
762.28	65.6037	0.83503	100.419	86.0978	
762.439	67.269	-1.61834	100.512	84.2391	
762.597	68.2193	-0.64714	99.9831	83.4001	
762.756	67.0843	0.6753	98.1346	88.2752	
762.915	68.4107	0.121848	98.5117	84.7022	
763.073	68.2517	2.25883	100.935	86.2817	
763.232	65.9953	1.84488	98.2039	83.5081	
763.391	65.2277	1.39648	99.046	84.9908	
763.549	63.0781	1.63063	98.5035	84.5073	
763.708	67.0894	-2.58612	95.2963	79.5981	
763.867	62.6588	2.67761	94.6179	81.026	
764.025	63.2203	-0.177585	96.9388	82.823	
764.184	64.4685	2.86952	94.0563	79.5721	
764.342	63.5734	2.67288	97.2974	77.9247	
764.501	64.2486	-0.562501	95.3782	82.9849	
764.659	61.4976	4.49278	93.2539	77.0872	
764.818	63.4261	2.13579	98.0535	79.9108	
764.976	63.3502	0.770383	94.2894	80.3491	
765.134	61.064	2.57024	93.7725	79.7697	
765.293	60.7247	3.87722	96.466	79.4025	
765.451	59.5682	4.90856	87.975	78.0377	
765.609	61.1716	2.51883	96.3061	76.8844	
765.768	60.6908	-1.09917	95.3865	81.1019	
765.926	62.4387	1.30138	90.7184	78.8583	
766.084	59.7085	-2.12748	92.8212	77.2938	
766.242	59.7322	2.26743	89.3108	82.4946	
766.4	57.9118	-1.61679	93.0445	75.5293	
766.559	59.5208	0.796592	84.4853	74.0039	
766.717	57.5502	1.7945	90.5709	77.5327	
766.875	59.0452	-0.378136	90.6733	74.6142	
767.033	58.4452	-0.365458	89.9027	72.2389	
767.191	55.961	3.83853	86.674	72.6134	
767.349	53.8437	4.43883	88.227	76.1553	
767.507	55.4998	-1.71182	85.6193	70.0573	
767.665	57.8717	1.27533	84.5072	71.8956	
767.823	57.3626	3.60468	87.0988	72.2449	
767.981	57.2237	4.11385	84.9578	71.5297	
768.139	56.1195	2.12067	85.7329	71.5002	
768.297	56.0127	2.02508	83.076	76.4694	
768.454	53.32	-2.00721	84.427	68.3693	
768.612	53.9577	2.00163	85.5134	67.8011	
768.77	55.628	2.85124	83.1036	69.8074	
768.928	54.1052	1.37323	84.5475	71.4898	
769.086	53.3855	0.939886	79.7071	68.9105	
769.243	52.4771	1.42222	84.5109	75.0778	
769.401	53.5499	-0.232889	81.7974	69.6192	
769.559	55.9046	1.22259	79.2212	66.5101	
769.716	52.8855	-0.365231	79.0019	67.7528	
769.874	51.5326	-2.57956	82.3212	67.6646	
770.031	53.7693	0.453688	82.3906	63.7065	
770.189	52.6493	2.6016	79.9686	66.0542	
770.347	50.8608	-2.39241	80.1899	65.5697	
770.504	52.0911	0.87188	76.7599	66.5141	
770.662	52.0289	-0.311995	76.6963	67.9802	
770.819	48.9411	-0.223339	80.9828	67.9299	
770.977	52.8587	1.89474	78.5347	62.1733	
771.134	48.8583	3.25125	78.8652	68.326	
771.291	52.2967	1.29202	79.2187	65.3971	
771.449	50.7604	6.42935	76.7626	64.2736	
771.606	47.5901	-0.960507	76.1352	64.6291	
771.763	48.1609	0.0754636	78.3212	62.4235	
771.921	48.3469	1.96532	77.5041	64.654	
772.078	50.204	4.97504	74.3332	66.7724	
772.235	48.9997	-2.15617	76.1037	63.855	
772.393	47.736	-3.30211	78.6775	64.4749	
772.55	49.2632	-2.39379	75.5897	62.8839	
772.707	47.4559	-0.305674	71.7009	64.3648	
772.864	44.2421	-1.10682	73.2706	59.6915	
773.021	46.8173	4.15129	73.2267	60.619	
773.178	45.9034	1.38728	75.3548	60.8141	
773.335	45.599	0.770774	73.7888	62.3813	
773.492	44.1604	-1.31614	74.2149	59.247	
773.649	46.6738	3.44239	71.2512	57.2439	
773.806	45.6309	5.47695	70.4608	60.9446	
773.963	46.5025	-0.953497	69.6366	58.1216	
774.12	43.2272	-0.406476	67.7721	58.8088	
774.277	43.9124	-1.24073	68.9363	59.5654	
774.434	47.0372	-1.27767	69.7829	57.7949	
774.591	41.6398	-0.603016	71.7272	61.6769	
774.748	43.9056	3.81236	70.7722	55.7875	
774.905	42.7932	1.43281	67.7719	56.6278	
775.061	44.1198	0.432077	68.2895	60.0747	
775.218	41.0281	5.53169	68.2403	58.5639	
775.375	42.0123	-0.160843	71.2751	58.5148	
775.532	41.8327	-0.0485863	70.1855	57.661	
775.688	43.9212	3.49686	68.1672	59.0473	
775.845	44.4296	-1.06018	68.569	57.5323	
776.002	41.8006	2.54822	65.6384	53.8774	
776.158	38.5195	-1.21658	67.1859	55.0201	
776.315	41.6803	1.75582	68.9913	54.0039	
776.471	43.1497	5.62249	67.1566	57.2637	
776.628	44.0245	2.18303	60.3145	53.9749	
776.784	41.3152	3.24204	64.6246	58.3068	
776.941	40.7225	-1.19919	63.2794	54.2855	
777.097	44.2374	0.837829	66.5069	55.6151	
777.254	40.686	0.335693	67.4071	53.9235	
777.41	38.4322	3.43386	66.3937	58.5561	
777.567	38.6072	4.29909	59.4708	53.1519	
777.723	42.3641	2.56289	65.6903	52.0555	
777.879	39.9545	2.20168	62.3126	48.9432	
778.036	39.2017	1.76322	60.8225	54.7739	
778.192	41.4457	10.4171	62.3085	52.7709	
778.348	38.7294	1.31052	60.0081	50.4091	
778.505	39.8925	-3.18933	62.2811	49.8685	
778.661	36.0033	-1.52689	61.4862	51.4226	
778.817	41.5969	10.7677	60.6123	52.8097	
778.973	36.6711	2.29629	61.9593	48.5063	
779.129	38.5221	0.069913	60.3291	51.7648	
779.285	36.2743	-0.334406	61.0907	51.5279	
779.442	40.892	3.16048	58.3129	47.4249	
779.598	38.4605	4.98957	62.2778	52.3934	
779.754	35.6054	4.43294	56.0442	47.1784	
779.91	35.6722	2.49955	58.4063	50.7886	
