# Date: Wed Nov 8 13:53:30 2023
# LED: 1
#Wavelength	#Inital reflectance [%]	#Final reflectance [%]
91.0096	0	0
91.2522	0	0
91.4948	0	0
91.7374	0	0
91.98	0	0
92.2226	0	0
92.4651	0	0
92.7076	0	0
92.9501	0	0
93.1925	0	0
93.4349	0	0
93.6773	0	0
93.9197	0	0
94.1621	0	0
94.4044	0	0
94.6467	0	0
94.889	0	0
95.1312	0	0
95.3734	0	0
95.6156	0	0
95.8578	0	0
96.0999	0	0
96.3421	0	0
96.5842	0	0
96.8262	0	0
97.0683	0	0
97.3103	0	0
97.5523	0	0
97.7943	0	0
98.0362	0	0
98.2782	0	0
98.5201	0	0
98.7619	0	0
99.0038	0	0
99.2456	0	0
99.4874	0	0
99.7292	0	0
99.9709	0	0
100.213	0	0
100.454	0	0
100.696	0	0
100.938	0	0
101.179	0	0
101.421	0	0
101.662	0	0
101.904	0	0
102.146	0	0
102.387	0	0
102.629	0	0
102.87	0	0
103.111	0	0
103.353	0	0
103.594	0	0
103.835	0	0
104.077	0	0
104.318	0	0
104.559	0	0
104.801	0	0
105.042	0	0
105.283	0	0
105.524	0	0
105.765	0	0
106.006	0	0
106.248	0	0
106.489	0	0
106.73	0	0
106.971	0	0
107.212	0	0
107.453	0	0
107.694	0	0
107.935	0	0
108.175	0	0
108.416	0	0
108.657	0	0
108.898	0	0
109.139	0	0
109.38	0	0
109.62	0	0
109.861	0	0
110.102	0	0
110.342	0	0
110.583	0	0
110.824	0	0
111.064	0	0
111.305	0	0
111.545	0	0
111.786	0	0
112.026	0	0
112.267	0	0
112.507	0	0
112.748	0	0
112.988	0	0
113.228	0	0
113.469	0	0
113.709	0	0
113.949	0	0
114.19	0	0
114.43	0	0
114.67	0	0
114.91	0	0
115.151	0	0
115.391	0	0
115.631	0	0
115.871	0	0
116.111	0	0
116.351	0	0
116.591	0	0
116.831	0	0
117.071	0	0
117.311	0	0
117.551	0	0
117.791	0	0
118.031	0	0
118.27	0	0
118.51	0	0
118.75	0	0
118.99	0	0
119.23	0	0
119.469	0	0
119.709	0	0
119.949	0	0
120.188	0	0
120.428	0	0
120.667	0	0
120.907	0	0
121.147	0	0
121.386	0	0
121.626	0	0
121.865	0	0
122.104	0	0
122.344	0	0
122.583	0	0
122.823	0	0
123.062	0	0
123.301	0	0
123.541	0	0
123.78	0	0
124.019	0	0
124.258	0	0
124.498	0	0
124.737	0	0
124.976	0	0
125.215	0	0
125.454	0	0
125.693	0	0
125.932	0	0
126.171	0	0
126.41	0	0
126.649	0	0
126.888	0	0
127.127	0	0
127.366	0	0
127.605	0	0
127.844	0	0
128.082	0	0
128.321	0	0
128.56	0	0
128.799	0	0
129.037	0	0
129.276	0	0
129.515	0	0
129.753	0	0
129.992	0	0
130.231	0	0
130.469	0	0
130.708	0	0
130.946	0	0
131.185	0	0
131.423	0	0
131.662	0	0
131.9	0	0
132.138	0	0
132.377	0	0
132.615	0	0
132.853	0	0
133.092	0	0
133.33	0	0
133.568	0	0
133.806	0	0
134.045	0	0
134.283	0	0
134.521	0	0
134.759	0	0
134.997	0	0
135.235	0	0
135.473	0	0
135.711	0	0
135.949	0	0
136.187	0	0
136.425	0	0
136.663	0	0
136.901	0	0
137.139	0	0
137.377	0	0
137.614	0	0
137.852	0	0
138.09	0	0
138.328	0	0
138.565	0	0
138.803	0	0
139.041	0	0
139.278	0	0
139.516	0	0
139.754	0	0
139.991	0	0
140.229	0	0
140.466	0	0
140.704	0	0
140.941	0	0
141.179	0	0
141.416	0	0
141.653	0	0
141.891	0	0
142.128	0	0
142.365	0	0
142.603	0	0
142.84	0	0
143.077	0	0
143.314	0	0
143.552	0	0
143.789	0	0
144.026	0	0
144.263	0	0
144.5	0	0
144.737	0	0
144.974	0	0
145.211	0	0
145.448	0	0
145.685	0	0
145.922	0	0
146.159	0	0
146.396	0	0
146.633	0	0
146.869	0	0
147.106	0	0
147.343	0	0
147.58	0	0
147.817	0	0
148.053	0	0
148.29	0	0
148.527	0	0
148.763	0	0
149	0	0
149.236	0	0
149.473	0	0
149.71	0	0
149.946	0	0
150.182	0	0
150.419	0	0
150.655	0	0
150.892	0	0
151.128	0	0
151.365	0	0
151.601	0	0
151.837	0	0
152.073	0	0
152.31	0	0
152.546	0	0
152.782	0	0
153.018	0	0
153.254	0	0
153.491	0	0
153.727	0	0
153.963	0	0
154.199	0	0
154.435	0	0
154.671	0	0
154.907	0	0
155.143	0	0
155.379	0	0
155.615	0	0
155.851	0	0
156.086	0	0
156.322	0	0
156.558	0	0
156.794	0	0
157.03	0	0
157.265	0	0
157.501	0	0
157.737	0	0
157.972	0	0
158.208	0	0
158.444	0	0
158.679	0	0
158.915	0	0
159.15	0	0
159.386	0	0
159.621	0	0
159.857	0	0
160.092	0	0
160.328	0	0
160.563	0	0
160.798	0	0
161.034	0	0
161.269	0	0
161.504	0	0
161.739	0	0
161.975	0	0
162.21	0	0
162.445	0	0
162.68	0	0
162.915	0	0
163.15	0	0
163.385	0	0
163.621	0	0
163.856	0	0
164.091	0	0
164.326	0	0
164.561	0	0
164.795	0	0
165.03	0	0
165.265	0	0
165.5	0	0
165.735	0	0
165.97	0	0
166.204	0	0
166.439	0	0
166.674	0	0
166.909	0	0
167.143	0	0
167.378	0	0
167.613	0	0
167.847	0	0
168.082	0	0
168.316	0	0
168.551	0	0
168.785	0	0
169.02	0	0
169.254	0	0
169.489	0	0
169.723	0	0
169.958	0	0
170.192	0	0
170.426	0	0
170.66	0	0
170.895	0	0
171.129	0	0
171.363	0	0
171.597	0	0
171.832	0	0
172.066	0	0
172.3	0	0
172.534	0	0
172.768	0	0
173.002	0	0
173.236	0	0
173.47	0	0
173.704	0	0
173.938	0	0
174.172	0	0
174.406	0	0
174.64	0	0
174.874	0	0
175.107	0	0
175.341	0	0
175.575	0	0
175.809	0	0
176.042	0	0
176.276	0	0
176.51	0	0
176.743	0	0
176.977	0	0
177.211	0	0
177.444	0	0
177.678	0	0
177.911	0	0
178.145	0	0
178.378	0	0
178.612	0	0
178.845	0	0
179.079	0	0
179.312	0	0
179.545	0	0
179.779	0	0
180.012	0	0
180.245	0	0
180.478	0	0
180.712	0	0
180.945	0	0
181.178	0	0
181.411	0	0
181.644	0	0
181.877	0	0
182.111	0	0
182.344	0	0
182.577	0	0
182.81	0	0
183.043	0	0
183.275	0	0
183.508	0	0
183.741	0	0
183.974	0	0
184.207	0	0
184.44	0	0
184.673	0	0
184.905	0	0
185.138	0	0
185.371	0	0
185.604	0	0
185.836	0	0
186.069	0	0
186.302	0	0
186.534	0	0
186.767	0	0
186.999	0	0
187.232	0	0
187.464	0	0
187.697	0	0
187.929	0	0
188.162	0	0
188.394	0	0
188.626	0	0
188.859	0	0
189.091	0	0
189.323	0	0
189.556	0	0
189.788	0	0
190.02	0	0
190.252	0	0
190.484	0	0
190.717	0	0
190.949	0	0
191.181	0	0
191.413	0	0
191.645	0	0
191.877	0	0
192.109	0	0
192.341	0	0
192.573	0	0
192.805	0	0
193.037	0	0
193.268	0	0
193.5	0	0
193.732	0	0
193.964	0	0
194.196	0	0
194.427	0	0
194.659	0	0
194.891	0	0
195.123	0	0
195.354	0	0
195.586	0	0
195.817	0	0
196.049	0	0
196.281	0	0
196.512	0	0
196.744	0	0
196.975	0	0
197.206	0	0
197.438	0	0
197.669	0	0
197.901	0	0
198.132	0	0
198.363	0	0
198.595	0	0
198.826	0	0
199.057	0	0
199.288	0	0
199.519	0	0
199.751	0	0
199.982	0	0
200.213	0	0
200.444	0	0
200.675	0	0
200.906	0	0
201.137	0	0
201.368	0	0
201.599	0	0
201.83	0	0
202.061	0	0
202.292	0	0
202.523	0	0
202.754	0	0
202.984	0	0
203.215	0	0
203.446	0	0
203.677	0	0
203.907	0	0
204.138	0	0
204.369	0	0
204.599	0	0
204.83	0	0
205.061	0	0
205.291	0	0
205.522	0	0
205.752	0	0
205.983	0	0
206.213	0	0
206.444	0	0
206.674	0	0
206.904	0	0
207.135	0	0
207.365	0	0
207.595	0	0
207.826	0	0
208.056	0	0
208.286	0	0
208.516	0	0
208.747	0	0
208.977	0	0
209.207	0	0
209.437	0	0
209.667	0	0
209.897	0	0
210.127	0	0
210.357	0	0
210.587	0	0
210.817	0	0
211.047	0	0
211.277	0	0
211.507	0	0
211.737	0	0
211.967	0	0
212.196	0	0
212.426	0	0
212.656	0	0
212.886	0	0
213.115	0	0
213.345	0	0
213.575	0	0
213.804	0	0
214.034	0	0
214.264	0	0
214.493	0	0
214.723	0	0
214.952	0	0
215.182	0	0
215.411	0	0
215.641	0	0
215.87	0	0
216.099	0	0
216.329	0	0
216.558	0	0
216.787	0	0
217.017	0	0
217.246	0	0
217.475	0	0
217.704	0	0
217.934	0	0
218.163	0	0
218.392	0	0
218.621	0	0
218.85	0	0
219.079	0	0
219.308	0	0
219.537	0	0
219.766	0	0
219.995	0	0
220.224	0	0
220.453	0	0
220.682	0	0
220.911	0	0
221.14	0	0
221.368	0	0
221.597	0	0
221.826	0	0
222.055	0	0
222.283	0	0
222.512	0	0
222.741	0	0
222.969	0	0
223.198	0	0
223.426	0	0
223.655	0	0
223.884	0	0
224.112	0	0
224.341	0	0
224.569	0	0
224.797	0	0
225.026	0	0
225.254	0	0
225.483	0	0
225.711	0	0
225.939	0	0
226.168	0	0
226.396	0	0
226.624	0	0
226.852	0	0
227.08	0	0
227.309	0	0
227.537	0	0
227.765	0	0
227.993	0	0
228.221	0	0
228.449	0	0
228.677	0	0
228.905	0	0
229.133	0	0
229.361	0	0
229.589	0	0
229.817	0	0
230.045	0	0
230.272	0	0
230.5	0	0
230.728	0	0
230.956	0	0
231.183	0	0
231.411	0	0
231.639	0	0
231.866	0	0
232.094	0	0
232.322	0	0
232.549	0	0
232.777	0	0
233.004	0	0
233.232	0	0
233.459	0	0
233.687	0	0
233.914	0	0
234.142	0	0
234.369	0	0
234.596	0	0
234.824	0	0
235.051	0	0
235.278	0	0
235.506	0	0
235.733	0	0
235.96	0	0
236.187	0	0
236.414	0	0
236.641	0	0
236.869	0	0
237.096	0	0
237.323	0	0
237.55	0	0
237.777	0	0
238.004	0	0
238.231	0	0
238.458	0	0
238.685	0	0
238.911	0	0
239.138	0	0
239.365	0	0
239.592	0	0
239.819	0	0
240.045	0	0
240.272	0	0
240.499	0	0
240.726	0	0
240.952	0	0
241.179	0	0
241.405	0	0
241.632	0	0
241.859	0	0
242.085	0	0
242.312	0	0
242.538	0	0
242.764	0	0
242.991	0	0
243.217	0	0
243.444	0	0
243.67	0	0
243.896	0	0
244.123	0	0
244.349	0	0
244.575	0	0
244.801	0	0
245.028	0	0
245.254	0	0
245.48	0	0
245.706	0	0
245.932	0	0
246.158	0	0
246.384	0	0
246.61	0	0
246.836	0	0
247.062	0	0
247.288	0	0
247.514	0	0
247.74	0	0
247.966	0	0
248.192	0	0
248.418	0	0
248.643	0	0
248.869	0	0
249.095	0	0
249.321	0	0
249.546	0	0
249.772	0	0
249.998	0	0
250.223	0	0
250.449	0	0
250.675	0	0
250.9	0	0
251.126	0	0
251.351	0	0
251.577	0	0
251.802	0	0
252.027	0	0
252.253	0	0
252.478	0	0
252.704	0	0
252.929	0	0
253.154	0	0
253.379	0	0
253.605	0	0
253.83	0	0
254.055	0	0
254.28	0	0
254.505	0	0
254.731	0	0
254.956	0	0
255.181	0	0
255.406	0	0
255.631	0	0
255.856	0	0
256.081	0	0
256.306	0	0
256.531	0	0
256.756	0	0
256.98	0	0
257.205	0	0
257.43	0	0
257.655	0	0
257.88	0	0
258.104	0	0
258.329	0	0
258.554	0	0
258.779	0	0
259.003	0	0
259.228	0	0
259.452	0	0
259.677	0	0
259.902	0	0
260.126	0	0
260.351	0	0
260.575	0	0
260.799	0	0
261.024	0	0
261.248	0	0
261.473	0	0
261.697	0	0
261.921	0	0
262.146	0	0
262.37	0	0
262.594	0	0
262.818	0	0
263.043	0	0
263.267	0	0
263.491	0	0
263.715	0	0
263.939	0	0
264.163	0	0
264.387	0	0
264.611	0	0
264.835	0	0
265.059	0	0
265.283	0	0
265.507	0	0
265.731	0	0
265.955	0	0
266.179	0	0
266.402	0	0
266.626	0	0
266.85	0	0
267.074	0	0
267.298	0	0
267.521	0	0
267.745	0	0
267.969	0	0
268.192	0	0
268.416	0	0
268.639	0	0
268.863	0	0
269.086	0	0
269.31	0	0
269.533	0	0
269.757	0	0
269.98	0	0
270.204	0	0
270.427	0	0
270.65	0	0
270.874	0	0
271.097	0	0
271.32	0	0
271.543	0	0
271.767	0	0
271.99	0	0
272.213	0	0
272.436	0	0
272.659	0	0
272.882	0	0
273.105	0	0
273.328	0	0
273.551	0	0
273.774	0	0
273.997	0	0
274.22	0	0
274.443	0	0
274.666	0	0
274.889	0	0
275.112	0	0
275.335	0	0
275.557	0	0
275.78	0	0
276.003	0	0
276.226	0	0
276.448	0	0
276.671	0	0
276.894	0	0
277.116	0	0
277.339	0	0
277.561	0	0
277.784	0	0
278.007	0	0
278.229	0	0
278.452	0	0
278.674	0	0
278.896	0	0
279.119	0	0
279.341	0	0
279.563	0	0
279.786	0	0
280.008	0	0
280.23	0	0
280.453	0	0
280.675	0	0
280.897	0	0
281.119	0	0
281.341	0	0
281.563	0	0
281.785	0	0
282.008	0	0
282.23	0	0
282.452	0	0
282.674	0	0
282.896	0	0
283.117	0	0
283.339	0	0
283.561	0	0
283.783	0	0
284.005	0	0
284.227	0	0
284.449	0	0
284.67	0	0
284.892	0	0
285.114	0	0
285.336	0	0
285.557	0	0
285.779	0	0
286	0	0
286.222	0	0
286.444	0	0
286.665	0	0
286.887	0	0
287.108	0	0
287.33	0	0
287.551	0	0
287.772	0	0
287.994	0	0
288.215	0	0
288.437	0	0
288.658	0	0
288.879	0	0
289.1	0	0
289.322	0	0
289.543	0	0
289.764	0	0
289.985	0	0
290.206	0	0
290.427	0	0
290.649	0	0
290.87	0	0
291.091	0	0
291.312	0	0
291.533	0	0
291.754	0	0
291.974	0	0
292.195	0	0
292.416	0	0
292.637	0	0
292.858	0	0
293.079	0	0
293.3	0	0
293.52	0	0
293.741	0	0
293.962	0	0
294.182	0	0
294.403	0	0
294.624	0	0
294.844	0	0
295.065	0	0
295.286	0	0
295.506	0	0
295.727	0	0
295.947	0	0
296.168	0	0
296.388	0	0
296.608	0	0
296.829	0	0
297.049	0	0
297.269	0	0
297.49	0	0
297.71	0	0
297.93	0	0
298.151	0	0
298.371	0	0
298.591	0	0
298.811	0	0
299.031	0	0
299.251	0	0
299.471	0	0
299.691	0	0
299.911	0	0
300.132	0	0
300.352	0	0
300.571	0	0
300.791	0	0
301.011	0	0
301.231	0	0
301.451	0	0
301.671	0	0
301.891	0	0
302.11	0	0
302.33	0	0
302.55	0	0
302.77	0	0
302.989	0	0
303.209	0	0
303.429	0	0
303.648	0	0
303.868	0	0
304.087	0	0
304.307	0	0
304.526	0	0
304.746	0	0
304.965	0	0
305.185	0	0
305.404	0	0
305.624	0	0
305.843	0	0
306.062	0	0
306.282	0	0
306.501	0	0
306.72	0	0
306.939	0	0
307.159	0	0
307.378	0	0
307.597	0	0
307.816	0	0
308.035	0	0
308.254	0	0
308.473	0	0
308.692	0	0
308.911	0	0
309.13	0	0
309.349	0	0
309.568	0	0
309.787	0	0
310.006	0	0
310.225	0	0
310.444	0	0
310.662	0	0
310.881	0	0
311.1	0	0
311.319	0	0
311.537	0	0
311.756	0	0
311.975	0	0
312.193	0	0
312.412	0	0
312.631	0	0
312.849	0	0
313.068	0	0
313.286	0	0
313.505	0	0
313.723	0	0
313.941	0	0
314.16	0	0
314.378	0	0
314.597	0	0
314.815	0	0
315.033	0	0
315.252	0	0
315.47	0	0
315.688	0	0
315.906	0	0
316.124	0	0
316.343	0	0
316.561	0	0
316.779	0	0
316.997	0	0
317.215	0	0
317.433	0	0
317.651	0	0
317.869	0	0
318.087	0	0
318.305	0	0
318.523	0	0
318.741	0	0
318.958	0	0
319.176	0	0
319.394	0	0
319.612	0	0
319.83	0	0
320.047	0	0
320.265	0	0
320.483	0	0
320.7	0	0
320.918	0	0
321.136	0	0
321.353	0	0
321.571	0	0
321.788	0	0
322.006	0	0
322.223	0	0
322.441	0	0
322.658	0	0
322.875	0	0
323.093	0	0
323.31	0	0
323.528	0	0
323.745	0	0
323.962	0	0
324.179	0	0
324.397	0	0
324.614	0	0
324.831	0	0
325.048	0	0
325.265	0	0
325.482	0	0
325.699	0	0
325.916	0	0
326.133	0	0
326.35	0	0
326.567	0	0
326.784	0	0
327.001	0	0
327.218	0	0
327.435	0	0
327.652	0	0
327.869	0	0
328.086	0	0
328.302	0	0
328.519	0	0
328.736	0	0
328.953	0	0
329.169	0	0
329.386	0	0
329.602	0	0
329.819	0	0
330.036	0	0
330.252	0	0
330.469	0	0
330.685	0	0
330.902	0	0
331.118	0	0
331.335	0	0
331.551	0	0
331.767	0	0
331.984	0	0
332.2	0	0
332.416	0	0
332.633	0	0
332.849	0	0
333.065	0	0
333.281	0	0
333.497	0	0
333.714	0	0
333.93	0	0
334.146	0	0
334.362	0	0
334.578	0	0
334.794	0	0
335.01	0	0
335.226	0	0
335.442	0	0
335.658	0	0
335.874	0	0
336.09	0	0
336.305	0	0
336.521	0	0
336.737	0	0
336.953	0	0
337.168	0	0
337.384	0	0
337.6	0	0
337.816	0	0
338.031	0	0
338.247	0	0
338.462	0	0
338.678	0	0
338.894	0	0
339.109	0	0
339.325	0	0
339.54	0	0
339.755	0	0
339.971	0	0
340.186	0	0
340.402	0	0
340.617	0	0
340.832	0	0
341.048	0	0
341.263	0	0
341.478	0	0
341.693	0	0
341.909	0	0
342.124	0	0
342.339	0	0
342.554	0	0
342.769	0	0
342.984	0	0
343.199	0	0
343.414	0	0
343.629	0	0
343.844	0	0
344.059	0	0
344.274	0	0
344.489	0	0
344.704	0	0
344.919	0	0
345.133	0	0
345.348	0	0
345.563	0	0
345.778	0	0
345.992	0	0
346.207	0	0
346.422	0	0
346.636	0	0
346.851	0	0
347.066	0	0
347.28	0	0
347.495	0	0
347.709	0	0
347.924	0	0
348.138	0	0
348.353	0	0
348.567	0	0
348.782	0	0
348.996	0	0
349.21	0	0
349.425	0	0
349.639	0	0
349.853	0	0
350.067	0	0
350.282	0	0
350.496	0	0
350.71	0	0
350.924	0	0
351.138	0	0
351.352	0	0
351.566	0	0
351.78	0	0
351.994	0	0
352.208	0	0
352.422	0	0
352.636	0	0
352.85	0	0
353.064	0	0
353.278	0	0
353.492	0	0
353.706	0	0
353.919	0	0
354.133	0	0
354.347	0	0
354.561	0	0
354.774	0	0
354.988	0	0
355.202	0	0
355.415	0	0
355.629	0	0
355.842	0	0
356.056	0	0
356.269	0	0
356.483	0	0
356.696	0	0
356.91	0	0
357.123	0	0
357.337	0	0
357.55	0	0
357.763	0	0
357.977	0	0
358.19	0	0
358.403	0	0
358.616	0	0
358.83	0	0
359.043	0	0
359.256	0	0
359.469	0	0
359.682	0	0
359.895	0	0
360.108	0	0
360.321	0	0
360.534	0	0
360.747	0	0
360.96	0	0
361.173	0	0
361.386	0	0
361.599	0	0
361.812	0	0
362.025	0	0
362.238	0	0
362.45	0	0
362.663	0	0
362.876	0	0
363.089	0	0
363.301	0	0
363.514	0	0
363.727	0	0
363.939	0	0
364.152	0	0
364.364	0	0
364.577	0	0
364.789	0	0
365.002	0	0
365.214	0	0
365.427	0	0
365.639	0	0
365.852	0	0
366.064	0	0
366.276	0	0
366.489	0	0
366.701	0	0
366.913	0	0
367.125	0	0
367.338	0	0
367.55	0	0
367.762	0	0
367.974	0	0
368.186	0	0
368.398	0	0
368.61	0	0
368.822	0	0
369.034	0	0
369.246	0	0
369.458	0	0
369.67	0	0
369.882	0	0
370.094	0	0
370.306	0	0
370.518	0	0
370.73	0	0
370.941	0	0
371.153	0	0
371.365	0	0
371.577	0	0
371.788	0	0
372	0	0
372.212	0	0
372.423	0	0
372.635	0	0
372.846	0	0
373.058	0	0
373.269	0	0
373.481	0	0
373.692	0	0
373.904	0	0
374.115	0	0
374.327	0	0
374.538	0	0
374.749	0	0
374.961	0	0
375.172	0	0
375.383	0	0
375.594	0	0
375.805	0	0
376.017	0	0
376.228	0	0
376.439	0	0
376.65	0	0
376.861	0	0
377.072	0	0
377.283	0	0
377.494	0	0
377.705	0	0
377.916	0	0
378.127	0	0
378.338	0	0
378.549	0	0
378.76	0	0
378.971	0	0
379.181	0	0
379.392	0	0
379.603	0	0
379.814	0	0
380.024	0	0
380.235	0	0
380.446	0	0
380.656	0	0
380.867	0	0
381.078	0	0
381.288	0	0
381.499	0	0
381.709	0	0
381.92	0	0
382.13	0	0
382.34	0	0
382.551	0	0
382.761	0	0
382.972	0	0
383.182	0	0
383.392	0	0
383.603	0	0
383.813	0	0
384.023	0	0
384.233	0	0
384.443	0	0
384.654	0	0
384.864	0	0
385.074	0	0
385.284	0	0
385.494	0	0
385.704	0	0
385.914	0	0
386.124	0	0
386.334	0	0
386.544	0	0
386.754	0	0
386.964	0	0
387.173	0	0
387.383	0	0
387.593	0	0
387.803	0	0
388.013	0	0
388.222	0	0
388.432	0	0
388.642	0	0
388.851	0	0
389.061	0	0
389.271	0	0
389.48	0	0
389.69	0	0
389.899	0	0
390.109	0	0
390.318	0	0
390.528	0	0
390.737	0	0
390.947	0	0
391.156	0	0
391.365	0	0
391.575	0	0
391.784	0	0
391.993	0	0
392.202	0	0
392.412	0	0
392.621	0	0
392.83	0	0
393.039	0	0
393.248	0	0
393.457	0	0
393.666	0	0
393.876	0	0
394.085	0	0
394.294	0	0
394.503	0	0
394.711	0	0
394.92	0	0
395.129	0	0
395.338	0	0
395.547	0	0
395.756	0	0
395.965	0	0
396.173	0	0
396.382	0	0
396.591	0	0
396.8	0	0
397.008	0	0
397.217	0	0
397.426	0	0
397.634	0	0
397.843	0	0
398.051	0	0
398.26	0	0
398.468	0	0
398.677	0	0
398.885	0	0
399.094	0	0
399.302	0	0
399.51	0	0
399.719	0	0
399.927	0	0
400.135	0	0
400.344	0	0
400.552	0	0
400.76	0	0
400.968	0	0
401.176	0	0
401.385	0	0
401.593	0	0
401.801	0	0
402.009	0	0
402.217	0	0
402.425	0	0
402.633	0	0
402.841	0	0
403.049	0	0
403.257	0	0
403.465	0	0
403.673	0	0
403.88	0	0
404.088	0	0
404.296	0	0
404.504	0	0
404.712	0	0
404.919	0	0
405.127	0	0
405.335	0	0
405.542	0	0
405.75	0	0
405.958	0	0
406.165	0	0
406.373	0	0
406.58	0	0
406.788	0	0
406.995	0	0
407.203	0	0
407.41	0	0
407.617	0	0
407.825	0	0
408.032	37.0337	32.4568
408.239	35.8367	36.5122
408.447	37.0591	35.8834
408.654	39.8934	39.8934
408.861	38.784	37.093
409.068	37.6554	39.1949
409.276	38.9911	38.9185
409.483	39.0946	39.343
409.69	40.362	36.6591
409.897	39.3681	39.3342
410.104	39.2704	36.8865
410.311	40.2374	39.7588
410.518	40.4134	38.1773
410.725	40.9174	38.8149
410.932	39.2793	36.3837
411.139	41.8778	40.0983
411.346	39.8741	39.4129
411.553	42.0732	38.9594
411.76	41.1639	39.3074
411.967	42.1583	39.3805
412.174	43.2066	41.3102
412.381	41.9032	39.8376
412.587	45.1388	41.0726
412.794	44.1239	40.74
413.001	44.9164	42.2163
413.208	43.86	41.6399
413.414	43.8196	41.4965
413.621	45.0827	42.1792
413.828	46.3821	41.824
414.034	44.5337	42.964
414.241	44.5961	41.7077
414.447	45.269	41.2014
414.654	44.9024	41.6564
414.86	46.928	43.7066
415.067	47.2787	43.5524
415.273	45.9671	42.6179
415.48	47.3887	43.4488
415.686	47.6281	42.7207
415.893	46.9169	43.442
416.099	47.8541	43.664
416.305	47.3459	42.308
416.512	48.5161	44.1574
416.718	48.282	43.3606
416.924	48.0206	43.8693
417.131	48.5369	43.7467
417.337	49.4699	44.9359
417.543	48.9839	43.6518
417.749	49.7479	44.6714
417.955	49.9098	44.213
418.161	49.2238	44.1521
418.367	49.7954	44.636
418.574	49.4088	44.6564
418.78	50.0143	43.8827
418.986	50.36	45.7254
419.192	50.3909	45.1947
419.398	49.9641	45.1709
419.604	49.9281	44.9065
419.809	50.2174	45.0557
420.015	50.2084	45.7768
420.221	50.2871	45.0772
420.427	51.397	45.5128
420.633	50.836	45.6603
420.839	51.1208	45.3208
421.044	51.4623	45.9304
421.25	50.9041	44.7377
421.456	52.0548	46.5127
421.662	52.3669	45.9573
421.867	52.1517	46.3359
422.073	52.2328	46.0609
422.278	52.4342	45.805
422.484	52.3244	46.7091
422.69	52.2024	46.539
422.895	52.8075	46.0829
423.101	52.4407	46.6152
423.306	52.8366	46.7718
423.512	53.1349	46.4798
423.717	53.1784	46.71
423.922	52.8055	46.5555
424.128	53.5819	47.1548
424.333	53.0657	46.6865
424.539	53.4026	47.0802
424.744	53.937	46.9762
424.949	53.6422	46.6675
425.154	53.2552	46.9134
425.36	53.7896	45.9065
425.565	53.5134	46.5928
425.77	53.8035	47.5311
425.975	53.8035	47.053
426.18	53.9762	47.1516
426.385	53.9625	47.3885
426.591	54.6748	47.1773
426.796	54.2819	47.5826
427.001	54.6573	47.0009
427.206	54.526	47.4355
427.411	54.4911	47.2514
427.616	54.8813	47.4486
427.821	54.6318	47.6054
428.026	54.8698	47.6652
428.23	54.9438	47.3571
428.435	54.6935	47.6274
428.64	54.9065	47.3159
428.845	54.8729	47.1581
429.05	55.3009	47.747
429.254	55.1455	48.003
429.459	55.7393	47.5366
429.664	55.2613	47.6854
429.869	55.9085	47.8516
430.073	55.527	47.9539
430.278	55.7187	47.791
430.483	55.3943	47.9196
430.687	55.6979	47.8824
430.892	55.6303	48.0126
431.096	55.7122	47.8672
431.301	56.213	47.7716
431.505	56.2488	47.9837
431.71	55.7429	48.035
431.914	56.0684	47.9647
432.118	55.866	48.2282
432.323	56.3525	48.0213
432.527	55.919	48.3263
432.732	56.2615	47.9577
432.936	56.3617	48.1545
433.14	56.3216	48.2223
433.344	56.4341	47.9382
433.549	56.52	48.4022
433.753	56.5622	48.3465
433.957	56.7076	48.1092
434.161	56.7135	48.0863
434.365	56.7918	48.1977
434.57	56.6306	48.0193
434.774	56.8645	48.1541
434.978	56.5624	48.2517
435.182	56.8527	48.4165
435.386	57.0809	48.5473
435.59	57.0318	48.2497
435.794	57.2623	48.3393
435.998	57.0022	48.306
436.201	56.956	48.2114
436.405	57.322	48.4237
436.609	57.1805	48.4765
436.813	57.158	48.5681
437.017	57.2616	48.5625
437.221	57.3732	48.3041
437.424	57.3859	48.3818
437.628	57.3019	48.5107
437.832	57.1424	48.4287
438.036	57.2688	48.3415
438.239	57.329	48.4549
438.443	57.4765	48.5957
438.646	57.3099	48.5093
438.85	57.2975	48.4347
439.054	57.2959	48.5195
439.257	57.284	48.4829
439.461	57.2549	48.5798
439.664	57.3279	48.6508
439.868	57.1208	48.5755
440.071	57.2505	48.4278
440.274	57.082	48.7144
440.478	57.0319	48.5216
440.681	56.9931	48.6494
440.885	56.9171	48.7504
441.088	56.7676	48.5693
441.291	56.7287	48.6238
441.494	56.6227	48.6167
441.698	56.6425	48.7993
441.901	56.6559	48.6431
442.104	56.5002	48.7266
442.307	56.4713	48.8179
442.51	56.4261	48.7095
442.713	56.255	48.6622
442.916	56.0483	48.6516
443.12	55.8995	48.8293
443.323	55.7077	48.6055
443.526	55.8459	48.725
443.729	55.8017	48.8479
443.932	55.4275	48.6707
444.134	55.3705	48.6811
444.337	55.1896	48.7167
444.54	55.1605	48.7796
444.743	55.1702	48.7036
444.946	54.9339	48.7133
445.149	55.0107	48.6554
445.352	54.6978	48.8106
445.554	54.6037	48.8718
445.757	54.5481	48.5614
445.96	54.4736	48.7858
446.162	54.3883	48.6876
446.365	54.2366	48.6574
446.568	54.0657	48.5307
446.77	54.0122	48.4941
446.973	53.7869	48.6121
447.175	53.683	48.3915
447.378	53.7947	48.4317
447.58	53.811	48.6162
447.783	53.609	48.5441
447.985	53.645	48.5506
448.188	53.6059	48.5247
448.39	53.4277	48.4437
448.593	53.3344	48.5145
448.795	53.3571	48.4634
448.997	53.5397	48.5704
449.2	53.6574	48.5959
449.402	53.7174	48.479
449.604	53.4717	48.4884
449.806	53.5319	48.548
450.009	53.5529	48.3381
450.211	53.6596	48.4675
450.413	53.4397	48.448
450.615	53.4108	48.4215
450.817	53.636	48.41
451.019	53.4296	48.6082
451.221	53.5183	48.1313
451.423	53.7469	48.4081
451.625	53.5386	48.4545
451.827	53.7356	48.2505
452.029	54.0072	48.5736
452.231	53.8379	48.4063
452.433	53.5463	48.2267
452.635	53.758	48.4877
452.837	53.8807	48.1867
453.039	54.146	48.2361
453.24	53.7893	48.3604
453.442	54.0178	48.0803
453.644	53.8018	48.2158
453.846	54.0496	48.3164
454.047	53.6668	48.1325
454.249	54.0259	48.1651
454.451	53.9476	48.1006
454.652	54.2135	48.1291
454.854	54.0628	48.14
455.056	54.1223	48.1341
455.257	53.9664	48.2479
455.459	54.0251	47.9262
455.66	53.9378	48.1798
455.862	54.0473	48.1302
456.063	53.9425	48.1135
456.265	53.909	48.0687
456.466	53.7012	47.9007
456.667	53.979	48.1286
456.869	53.6658	48.0272
457.07	53.7682	47.5754
457.271	53.4738	47.8923
457.473	53.7702	47.8161
457.674	53.7494	47.9425
457.875	53.7158	47.9826
458.076	53.6992	47.837
458.277	53.4054	47.9568
458.479	53.2261	47.8777
458.68	53.3736	47.997
458.881	53.2324	47.8544
459.082	53.3836	47.6572
459.283	53.3434	47.6301
459.484	53.1766	47.7437
459.685	53.1316	47.8374
459.886	53.0468	47.7524
460.087	53.0606	47.9351
460.288	53.1941	47.7186
460.489	53.0083	47.9522
460.69	52.7362	47.6099
460.89	53.0461	47.7392
461.091	52.8695	47.982
461.292	52.6779	47.5329
461.493	52.8844	47.5059
461.694	52.8194	47.7453
461.894	52.7208	47.5806
462.095	52.4997	47.6035
462.296	52.5595	47.7396
462.496	52.5741	47.6573
462.697	52.6615	47.6807
462.898	52.6159	47.7255
463.098	52.5931	47.296
463.299	52.6539	47.3859
463.499	52.3066	47.5901
463.7	52.6686	47.6989
463.9	52.7324	47.3845
464.101	52.3329	47.2053
464.301	52.5753	47.5241
464.501	52.256	47.5185
464.702	52.3752	47.6668
464.902	52.4347	47.5781
465.103	52.5527	47.3481
465.303	52.373	47.5209
465.503	52.6434	47.3093
465.703	52.3015	47.3644
465.904	52.3159	47.1551
466.104	52.4709	47.0651
466.304	52.6309	47.5572
466.504	52.2263	47.1262
466.704	52.3906	47.1386
466.904	52.417	47.0742
467.104	52.3419	46.6694
467.304	52.2423	47.1379
467.504	52.5174	47.2757
467.704	52.214	47.1013
467.904	52.363	46.9411
468.104	52.5598	47.1915
468.304	52.409	46.6552
468.504	52.311	47.06
468.704	52.2127	46.7652
468.904	52.3111	46.8745
469.104	52.0359	46.3091
469.304	52.3397	46.6991
469.503	52.1458	46.5236
469.703	52.0322	46.8161
469.903	52.1689	46.5718
470.103	51.8014	46.4593
470.302	52.1994	46.7124
470.502	52.0462	46.3818
470.701	52.0504	46.8414
470.901	51.75	46.7674
471.101	52.0119	46.2195
471.3	51.4231	46.2232
471.5	51.9759	46.4642
471.699	51.7491	46.2278
471.899	51.9443	46.3643
472.098	51.6969	46.4919
472.298	52.0711	46.4733
472.497	51.5235	46.1904
472.696	51.2092	46.1369
472.896	51.5767	45.9688
473.095	51.2831	46.1883
473.294	51.3565	46.2461
473.494	51.5609	46.2367
473.693	51.4251	46.0889
473.892	51.2282	45.9473
474.091	51.2699	46.0886
474.29	51.2826	45.7869
474.49	51.0593	45.7802
474.689	51.0234	45.8445
474.888	50.9224	45.8109
475.087	50.8617	45.8667
475.286	50.8585	45.6815
475.485	51.2577	45.5689
475.684	50.7203	45.5527
475.883	50.8582	45.2399
476.082	50.6595	45.6354
476.281	50.5828	45.316
476.48	50.4747	45.5051
476.678	50.421	45.1102
476.877	50.2345	45.5477
477.076	50.5312	44.868
477.275	50.3444	45.2434
477.474	50.4029	45.009
477.672	50.2869	45.017
477.871	50.2362	45.0623
478.07	50.0725	45.0772
478.269	49.7792	44.992
478.467	49.9279	44.9287
478.666	49.9971	44.786
478.864	49.7785	44.7481
479.063	49.419	44.676
479.262	49.7838	44.8848
479.46	49.5507	44.6193
479.659	49.5237	44.8893
479.857	49.5998	44.6795
480.055	49.3786	44.3555
480.254	49.4393	44.3716
480.452	49.2947	44.3428
480.651	49.1831	44.0806
480.849	49.1257	44.376
481.047	49.4281	44.3259
481.246	49.0258	44.2028
481.444	48.9454	44.1631
481.642	48.9196	44.1417
481.84	48.5383	44.0883
482.039	48.2913	43.8299
482.237	48.823	44.0804
482.435	48.705	43.8688
482.633	48.3844	43.6071
482.831	48.4577	43.5227
483.029	48.1267	43.5322
483.227	48.312	43.7594
483.425	48.406	43.5112
483.623	48.1464	43.6693
483.821	48.1338	43.5349
484.019	47.9586	43.3343
484.217	47.7402	43.217
484.415	47.695	43.2163
484.613	47.7418	43.3249
484.811	47.7132	43.1379
485.008	47.5395	43.1438
485.206	47.4095	43.3141
485.404	47.59	43.253
485.602	47.0669	43.1003
485.799	47.1935	43.1195
485.997	46.8194	42.7806
486.195	46.9616	42.709
486.392	46.8556	42.6433
486.59	46.974	42.529
486.788	46.7415	42.6489
486.985	46.343	42.6932
487.183	46.7499	42.4852
487.38	46.3171	42.3741
487.578	46.2282	42.4289
487.775	46.3164	42.3556
487.973	46.3173	42.1786
488.17	46.2653	42.0294
488.367	45.7731	41.8673
488.565	45.6095	41.9216
488.762	45.7412	42.0249
488.959	45.7465	41.8669
489.157	45.2372	41.6987
489.354	45.3446	41.734
489.551	45.5166	41.9495
489.749	45.0831	41.5467
489.946	45.0158	41.3857
490.143	44.8141	41.3399
490.34	44.7886	41.476
490.537	44.7507	41.2536
490.734	44.778	41.229
490.931	44.7339	41.2573
491.128	44.4439	41.1218
491.325	44.3714	41.2435
491.522	44.1756	41.1519
491.719	44.279	40.924
491.916	44.0348	40.8913
492.113	43.7158	40.7148
492.31	43.8882	40.5621
492.507	43.7497	40.6934
492.704	43.6554	40.6462
492.901	43.4412	40.3928
493.097	43.1633	40.4377
493.294	43.3416	40.4799
493.491	43.1401	40.5082
493.688	43.1245	39.9629
493.884	42.8868	40.1246
494.081	42.6856	40.2013
494.278	42.7999	40.1887
494.474	42.6134	40.0835
494.671	42.6239	39.8656
494.867	42.4135	39.7938
495.064	42.2924	39.7168
495.26	42.1333	39.4783
495.457	42.1832	39.6441
495.653	41.8137	39.3155
495.85	41.7609	39.1127
496.046	41.6284	39.1364
496.243	41.3508	39.1148
496.439	41.5354	39.1591
496.635	41.257	39.1186
496.832	41.2748	39.132
497.028	41.1897	39.0048
497.224	41.2237	38.8597
497.42	40.8436	38.8798
497.617	40.7975	38.7745
497.813	40.8663	38.716
498.009	40.4077	38.7093
498.205	40.3456	38.5848
498.401	40.3161	38.4275
498.597	40.2519	38.4977
498.793	40.2326	38.3019
498.989	40.0002	38.1267
499.185	40.0701	38.217
499.381	39.7546	37.8988
499.577	39.4486	37.8634
499.773	39.4716	37.9019
499.969	39.443	38.0557
500.165	39.5887	37.6933
500.361	39.1566	37.59
500.557	39.0826	37.5435
500.753	39.1153	37.5433
500.948	38.5952	37.4694
501.144	38.8122	37.3727
501.34	38.6367	37.192
501.536	38.5479	37.0537
501.731	38.339	37.2198
501.927	38.2654	36.8019
502.123	38.0277	36.8912
502.318	38.2793	36.9149
502.514	37.8435	36.8981
502.709	37.8915	36.4984
502.905	37.5024	36.7829
503.1	37.6059	36.3794
503.296	37.4227	36.3226
503.491	37.2985	36.2957
503.687	37.2674	36.3483
503.882	37.1145	36.1886
504.078	36.914	36.0198
504.273	36.9606	36.0664
504.468	36.6357	35.9715
504.664	36.5104	35.7814
504.859	36.6466	35.6491
505.054	36.4596	35.8027
505.249	36.3386	35.7399
505.445	36.0458	35.4808
505.64	36.0262	35.3771
505.835	35.8103	35.4105
506.03	35.923	35.3999
506.225	35.5417	35.2025
506.42	35.6345	35.2603
506.615	35.4212	35.006
506.81	35.2627	34.9723
507.005	35.0428	34.8387
507.2	35.0545	34.7026
507.395	34.9982	34.8492
507.59	34.7417	34.6635
507.785	34.6246	34.5054
507.98	34.4563	34.5741
508.175	34.5362	34.4529
508.37	34.5592	34.3793
508.564	34.3385	34.2162
508.759	34.156	34.2164
508.954	33.9639	34.1855
509.149	33.9503	33.9945
509.343	33.805	33.8343
509.538	33.6659	33.8023
509.733	33.7116	33.5933
509.927	33.3728	33.5356
510.122	33.278	33.5697
510.317	33.2329	33.531
510.511	33.223	33.5
510.706	32.8965	33.3469
510.9	32.9154	33.3745
511.095	32.6918	33.2256
511.289	32.6126	33.1809
511.484	32.4225	33.0302
511.678	32.5413	32.9546
511.872	32.4108	32.8753
512.067	32.1936	32.7897
512.261	32.129	32.5475
512.455	31.8982	32.755
512.65	31.7759	32.6127
512.844	31.7606	32.4168
513.038	31.799	32.3129
513.232	31.6688	32.3122
513.427	31.356	32.2456
513.621	31.3685	32.113
513.815	31.1762	32.1925
514.009	31.1729	31.9998
514.203	31.0233	31.9718
514.397	30.8395	31.7376
514.591	30.8151	31.7363
514.785	30.7324	31.5704
514.979	30.632	31.6798
515.173	30.4778	31.6127
515.367	30.393	31.4715
515.561	30.3341	31.432
515.755	30.1435	31.3448
515.949	30.0346	31.0954
516.142	29.9221	31.2189
516.336	29.8028	30.9911
516.53	29.7455	30.9673
516.724	29.5896	30.9929
516.917	29.6995	30.7582
517.111	29.4924	30.5621
517.305	29.3134	30.7273
517.499	29.2151	30.6384
517.692	29.053	30.4808
517.886	28.9574	30.4952
518.079	28.9339	30.3546
518.273	28.8403	30.2123
518.466	28.7238	30.111
518.66	28.7348	30.1732
518.853	28.6715	30.0531
519.047	28.4068	29.9843
519.24	28.3135	29.8079
519.434	28.3736	29.6586
519.627	27.9519	29.6404
519.82	27.9461	29.8156
520.014	27.9525	29.5939
520.207	27.7654	29.39
520.4	27.7098	29.4484
520.594	27.6432	29.3485
520.787	27.3676	29.2882
520.98	27.4696	29.1181
521.173	27.415	29.1119
521.366	27.2582	28.9577
521.56	27.1103	28.9297
521.753	26.9353	28.7868
521.946	26.9814	28.708
522.139	26.7361	28.6896
522.332	26.7708	28.6109
522.525	26.7051	28.6139
522.718	26.6566	28.4098
522.911	26.4421	28.3751
523.104	26.2658	28.3408
523.297	26.1842	28.1288
523.489	26.2635	28.3512
523.682	25.9462	28.2359
523.875	26.0475	28.0393
524.068	25.8681	27.9834
524.261	25.7227	27.9303
524.453	25.6716	27.7847
524.646	25.5579	27.8344
524.839	25.296	27.5301
525.031	25.4732	27.5327
525.224	25.2616	27.567
525.417	25.136	27.4016
525.609	25.0395	27.2647
525.802	25.0504	27.4146
525.995	25.0101	27.2679
526.187	24.8033	27.3883
526.38	24.5616	27.1043
526.572	24.619	27.1367
526.765	24.3621	26.8127
526.957	24.5334	26.872
527.149	24.2818	26.7168
527.342	24.1703	26.7516
527.534	24.1569	26.6546
527.726	24.1074	26.5521
527.919	23.9469	26.4644
528.111	23.8785	26.3098
528.303	23.8578	26.2342
528.495	23.8294	26.3338
528.688	23.6179	26.2202
528.88	23.3862	26.0834
529.072	23.4825	26.086
529.264	23.3723	25.9155
529.456	23.2467	25.9118
529.648	23.1384	25.9343
529.84	23.1074	25.7908
530.032	23.0045	25.7708
530.224	22.8777	25.5183
530.416	22.83	25.469
530.608	22.8223	25.4828
530.8	22.7041	25.3
530.992	22.5606	25.3303
531.184	22.5055	25.2898
531.376	22.4289	25.1002
531.568	22.2564	25.1749
531.759	22.2058	25.0102
531.951	22.0946	25.0518
532.143	21.9986	24.8923
532.335	21.8755	24.9358
532.526	21.8847	24.5848
532.718	21.876	24.5904
532.91	21.6767	24.5717
533.101	21.5902	24.635
533.293	21.5796	24.4956
533.484	21.5384	24.4954
533.676	21.3966	24.2739
533.868	21.3301	24.3035
534.059	21.248	24.1401
534.251	21.0825	24.2135
534.442	21.0707	24.1669
534.633	20.9572	23.95
534.825	21.0791	23.9737
535.016	20.84	23.8406
535.208	20.6272	23.7465
535.399	20.6684	23.6494
535.59	20.5534	23.6358
535.781	20.4942	23.544
535.973	20.4025	23.4934
536.164	20.4056	23.4731
536.355	20.2744	23.4948
536.546	20.2102	23.3096
536.737	20.0996	23.2907
536.929	19.9693	23.2054
537.12	19.942	22.9957
537.311	19.8561	23.1146
537.502	19.7486	22.8979
537.693	19.6736	22.9216
537.884	19.5036	22.897
538.075	19.4881	22.7899
538.266	19.5348	22.6521
538.457	19.3859	22.6746
538.648	19.3706	22.6488
538.838	19.2658	22.6401
539.029	19.2248	22.4881
539.22	19.1157	22.404
539.411	18.9309	22.2499
539.602	18.9116	22.3356
539.792	18.9483	22.0916
539.983	18.7718	22.1689
540.174	18.7414	22.1035
540.365	18.5347	22.0529
540.555	18.5671	21.82
540.746	18.442	21.9092
540.936	18.3366	21.8538
541.127	18.3482	21.7653
541.317	18.2118	21.5828
541.508	18.2463	21.7424
541.698	18.0607	21.7145
541.889	18.0925	21.5546
542.079	17.8436	21.4484
542.27	17.9221	21.3119
542.46	17.7739	21.2692
542.651	17.7949	21.3866
542.841	17.6885	21.2156
543.031	17.5354	21.1807
543.222	17.5398	21.2666
543.412	17.4071	21.0008
543.602	17.3292	20.8084
543.792	17.3009	20.8971
543.982	17.395	20.9831
544.173	17.099	20.7548
544.363	17.0747	20.7141
544.553	16.982	20.6012
544.743	17.0063	20.5588
544.933	16.8445	20.4245
545.123	16.7651	20.3424
545.313	16.813	20.3624
545.503	16.7593	20.3979
545.693	16.7088	20.3623
545.883	16.636	20.1812
546.073	16.601	20.264
546.263	16.5634	20.0692
546.453	16.3757	20.0846
546.643	16.2976	20.0153
546.832	16.2231	19.9878
547.022	16.2871	19.9825
547.212	16.1058	19.8295
547.402	16.07	19.7399
547.591	16.0191	19.8434
547.781	15.9538	19.7608
547.971	15.9112	19.6351
548.16	15.9464	19.5767
548.35	15.6831	19.5072
548.54	15.7609	19.5293
548.729	15.6451	19.484
548.919	15.5681	19.2168
549.108	15.4715	19.255
549.298	15.4679	19.2746
549.487	15.4547	19.188
549.677	15.3121	19.1648
549.866	15.2995	19.1579
550.055	15.2399	18.8843
550.245	15.1605	19.0056
550.434	15.1469	18.9172
550.623	15.0446	18.9296
550.813	15.0419	18.8003
551.002	14.8907	18.7867
551.191	14.9359	18.6903
551.381	14.7849	18.68
551.57	14.8427	18.6283
551.759	14.6431	18.6266
551.948	14.5951	18.5758
552.137	14.6461	18.3712
552.326	14.5012	18.5105
552.515	14.5216	18.3312
552.704	14.4379	18.4056
552.893	14.4034	18.2945
553.082	14.3648	18.3062
553.271	14.3407	18.222
553.46	14.1888	18.1756
553.649	14.0255	18.1352
553.838	14.1292	17.9752
554.027	14.0281	17.9515
554.216	13.9974	18.0096
554.405	14.0009	17.9608
554.593	13.9008	17.8018
554.782	13.9421	17.8157
554.971	13.7585	17.7202
555.16	13.7916	17.694
555.348	13.705	17.5735
555.537	13.6507	17.663
555.726	13.5792	17.4663
555.914	13.6335	17.6181
556.103	13.5564	17.5746
556.291	13.4938	17.4772
556.48	13.3848	17.2927
556.668	13.3599	17.2907
556.857	13.3447	17.4142
557.045	13.29	17.2378
557.234	13.2926	17.2756
557.422	13.2284	17.1831
557.611	13.2201	17.1983
557.799	13.0497	16.9808
557.987	13.1523	17.082
558.176	12.9506	17.0351
558.364	12.9731	16.9936
558.552	12.9427	16.9771
558.74	12.8241	16.9512
558.929	12.8546	16.8135
559.117	12.7669	16.7796
559.305	12.7505	16.8242
559.493	12.7081	16.7161
559.681	12.5935	16.7558
559.869	12.6161	16.6828
560.057	12.6042	16.6723
560.245	12.6151	16.6704
560.433	12.5839	16.6333
560.621	12.4312	16.4765
560.809	12.3924	16.4333
560.997	12.4352	16.4278
561.185	12.362	16.4309
561.373	12.3818	16.346
561.561	12.3555	16.3713
561.749	12.2115	16.1663
561.937	12.197	16.3089
562.124	12.2271	16.1794
562.312	12.1364	16.1599
562.5	12.1292	16.1439
562.688	12.031	16.1405
562.875	12.0166	16.0284
563.063	12.016	16.0472
563.251	11.9107	16.0424
563.438	11.8754	15.9111
563.626	11.8653	15.9619
563.813	11.8428	15.9375
564.001	11.8395	15.9164
564.188	11.8569	15.8563
564.376	11.7789	15.7183
564.563	11.7122	15.7488
564.751	11.6649	15.7038
564.938	11.7046	15.709
565.126	11.6337	15.6251
565.313	11.608	15.6763
565.5	11.5453	15.5041
565.688	11.4708	15.5147
565.875	11.51	15.4859
566.062	11.3961	15.4617
566.249	11.4221	15.4084
566.437	11.348	15.3261
566.624	11.2792	15.2063
566.811	11.3647	15.3637
566.998	11.3015	15.2047
567.185	11.2365	15.2377
567.372	11.2509	15.2625
567.559	11.2265	15.1872
567.746	11.2189	15.136
567.933	11.1849	15.0962
568.12	11.109	14.9517
568.307	11.0799	15.0329
568.494	11.0228	14.9819
568.681	11.0216	15.0701
568.868	11.0354	15.062
569.055	10.9617	14.9426
569.242	10.9704	14.9332
569.429	10.9692	14.9138
569.615	11.0129	14.7772
569.802	10.8628	14.8413
569.989	10.8536	14.7958
570.176	10.7675	14.7952
570.362	10.8098	14.7565
570.549	10.7669	14.7136
570.736	10.7806	14.6919
570.922	10.7345	14.6864
571.109	10.6399	14.6041
571.295	10.6714	14.6478
571.482	10.624	14.5631
571.668	10.6328	14.4681
571.855	10.5572	14.3896
572.041	10.5248	14.5401
572.228	10.5552	14.3688
572.414	10.461	14.3812
572.601	10.4725	14.4732
572.787	10.4443	14.3933
572.973	10.4227	14.3802
573.16	10.4308	14.2496
573.346	10.3965	14.2145
573.532	10.3406	14.2357
573.718	10.3871	14.1248
573.905	10.2908	14.1942
574.091	10.2523	14.2097
574.277	10.2778	14.1529
574.463	10.2304	14.1172
574.649	10.2346	14.1367
574.835	10.2402	14.0295
575.021	10.2096	14.0479
575.207	10.1792	13.9802
575.393	10.1275	13.9627
575.579	10.1432	13.9738
575.765	10.1154	13.8244
575.951	10.0014	13.931
576.137	10.0186	13.8823
576.323	10.1132	13.8441
576.509	10.0623	13.9
576.695	10.0489	13.8158
576.88	9.97634	13.8104
577.066	10.0064	13.7947
577.252	9.90471	13.6889
577.438	9.99095	13.7181
577.623	9.9124	13.6727
577.809	9.87378	13.6088
577.995	9.86296	13.7584
578.18	9.85847	13.5399
578.366	9.84428	13.5945
578.552	9.83803	13.5831
578.737	9.82738	13.4791
578.923	9.79139	13.5042
579.108	9.74276	13.5551
579.294	9.72174	13.5035
579.479	9.67364	13.524
579.665	9.70166	13.3759
579.85	9.68655	13.3792
580.035	9.64661	13.2937
580.221	9.62922	13.4688
580.406	9.63912	13.2945
580.591	9.58396	13.3659
580.777	9.51745	13.3053
580.962	9.57986	13.2935
581.147	9.58371	13.2426
581.332	9.48454	13.1918
581.517	9.57131	13.2616
581.703	9.48495	13.2311
581.888	9.4574	13.2689
582.073	9.43876	13.1289
582.258	9.49591	13.0797
582.443	9.32121	13.1305
582.628	9.42576	13.1137
582.813	9.42663	13.053
582.998	9.49707	12.9906
583.183	9.26728	13.0069
583.368	9.2651	12.886
583.553	9.33885	12.9447
583.738	9.34301	12.9321
583.923	9.2651	12.9917
584.107	9.23918	12.8683
584.292	9.32058	12.921
584.477	9.27794	12.9007
584.662	9.29602	12.8357
584.846	9.24144	12.7846
585.031	9.12272	12.7487
585.216	9.09062	12.7004
585.4	9.14546	12.8062
585.585	9.16944	12.8147
585.77	9.17417	12.8375
585.954	9.19412	12.7037
586.139	9.07909	12.6982
586.323	9.17391	12.6634
586.508	9.09237	12.6135
586.692	9.06271	12.6783
586.877	8.99632	12.6429
587.061	9.07302	12.6332
587.246	8.96885	12.5666
587.43	9.10795	12.5666
587.614	9.00099	12.5538
587.799	8.98943	12.3682
587.983	9.01982	12.5798
588.167	8.99322	12.4299
588.351	8.93064	12.5634
588.536	8.97938	12.3604
588.72	8.90431	12.3985
588.904	8.91577	12.3156
589.088	8.92611	12.3665
589.272	8.86641	12.309
589.456	8.81154	12.4066
589.641	8.8768	12.3141
589.825	8.82536	12.3051
590.009	8.77314	12.3283
590.193	8.8624	12.2774
590.377	8.85329	12.3143
590.561	8.73375	12.3753
590.745	8.78054	12.2699
590.928	8.73869	12.1691
591.112	8.73774	12.2334
591.296	8.70388	12.1301
591.48	8.67911	12.1516
591.664	8.67284	12.1164
591.848	8.66499	12.0923
592.031	8.67775	12.08
592.215	8.63878	12.0413
592.399	8.62341	12.021
592.582	8.60808	12.0581
592.766	8.57165	11.9977
592.95	8.5789	11.9717
593.133	8.57896	11.9984
593.317	8.55646	11.941
593.5	8.5241	11.9874
593.684	8.55639	11.9293
593.867	8.4792	11.9249
594.051	8.56117	11.8781
594.234	8.52897	11.9023
594.418	8.55573	11.8292
594.601	8.44697	11.8157
594.785	8.3899	11.8497
594.968	8.40886	11.7097
595.151	8.41165	11.7651
595.334	8.30775	11.8371
595.518	8.38337	11.7753
595.701	8.39062	11.6527
595.884	8.30883	11.6508
596.067	8.32686	11.7613
596.251	8.35061	11.6724
596.434	8.31386	11.7051
596.617	8.37361	11.7337
596.8	8.26424	11.617
596.983	8.27265	11.6689
597.166	8.27563	11.5239
597.349	8.16798	11.5717
597.532	8.25417	11.6523
597.715	8.1556	11.5423
597.898	8.22481	11.5991
598.081	8.14689	11.5392
598.264	8.21943	11.5306
598.447	8.15903	11.4919
598.63	8.16548	11.4471
598.812	8.1383	11.4323
598.995	8.11907	11.4161
599.178	8.20555	11.378
599.361	8.11431	11.4087
599.543	8.11746	11.3749
599.726	8.11397	11.4086
599.909	8.02738	11.3507
600.091	8.03655	11.2681
600.274	8.05231	11.3266
600.457	8.08596	11.3979
600.639	8.07481	11.2198
600.822	8.00053	11.2882
601.004	7.98061	11.3426
601.187	7.97044	11.191
601.369	7.96801	11.2277
601.552	7.89772	11.2796
601.734	7.9759	11.2258
601.917	7.89572	11.2461
602.099	7.96962	11.2215
602.281	7.92419	11.1797
602.464	7.85809	11.1722
602.646	7.91846	11.0872
602.828	7.84892	11.1259
603.01	7.88922	11.1349
603.193	7.86214	11.0171
603.375	7.84238	11.1486
603.557	7.87471	11.1441
603.739	7.78737	11.0912
603.921	7.75183	11.0036
604.103	7.77329	11.0562
604.285	7.82365	11.0023
604.467	7.69784	10.9482
604.65	7.79284	10.9644
604.832	7.77753	10.9463
605.013	7.73918	10.9709
605.195	7.75833	10.9789
605.377	7.73353	10.9281
605.559	7.62922	10.8901
605.741	7.73705	10.9661
605.923	7.71892	10.8856
606.105	7.69525	10.9288
606.287	7.66429	10.9223
606.468	7.64029	10.8442
606.65	7.63141	10.8926
606.832	7.6123	10.8836
607.013	7.5728	10.8276
607.195	7.61623	10.7926
607.377	7.62056	10.8828
607.558	7.60031	10.8991
607.74	7.5544	10.7393
607.922	7.59213	10.7674
608.103	7.56639	10.7674
608.285	7.59484	10.7645
608.466	7.62411	10.8376
608.648	7.57861	10.7821
608.829	7.46986	10.7742
609.01	7.57182	10.7904
609.192	7.47575	10.8316
609.373	7.52603	10.7144
609.555	7.49185	10.8051
609.736	7.49646	10.6564
609.917	7.47777	10.7251
610.099	7.55302	10.6624
610.28	7.51668	10.7591
610.461	7.41138	10.6375
610.642	7.42809	10.6939
610.823	7.39479	10.6095
611.004	7.43325	10.6924
611.186	7.39022	10.6406
611.367	7.35264	10.7195
611.548	7.34704	10.6563
611.729	7.41289	10.6048
611.91	7.37837	10.5812
612.091	7.30986	10.6048
612.272	7.35136	10.6471
612.453	7.31805	10.5983
612.634	7.40672	10.5673
612.815	7.36212	10.5794
612.995	7.34094	10.5158
613.176	7.33173	10.5417
613.357	7.33216	10.5167
613.538	7.35227	10.5764
613.719	7.35563	10.5734
613.899	7.3988	10.5312
614.08	7.3384	10.4588
614.261	7.31837	10.5153
614.441	7.2844	10.5502
614.622	7.3219	10.5464
614.803	7.38332	10.5369
614.983	7.32113	10.5343
615.164	7.35438	10.4549
615.344	7.37545	10.5591
615.525	7.31803	10.4793
615.705	7.28288	10.526
615.886	7.29984	10.5322
616.066	7.29445	10.4972
616.247	7.28632	10.517
616.427	7.29593	10.5183
616.607	7.33199	10.429
616.788	7.26956	10.4513
616.968	7.31201	10.4509
617.148	7.32787	10.449
617.329	7.32531	10.4333
617.509	7.33868	10.514
617.689	7.25972	10.4632
617.869	7.24079	10.467
618.049	7.27925	10.4837
618.23	7.26387	10.611
618.41	7.35002	10.3853
618.59	7.29836	10.4743
618.77	7.28431	10.5169
618.95	7.29435	10.5086
619.13	7.30491	10.4247
619.31	7.28707	10.4736
619.49	7.32205	10.3775
619.67	7.36986	10.4849
619.85	7.27407	10.4195
620.03	7.28458	10.4738
620.209	7.27069	10.5032
620.389	7.27609	10.4892
620.569	7.32781	10.5895
620.749	7.3383	10.5712
620.929	7.32614	10.5298
621.108	7.31327	10.5349
621.288	7.34738	10.5592
621.468	7.32281	10.5092
621.647	7.34386	10.5755
621.827	7.3384	10.6124
622.007	7.3803	10.522
622.186	7.41116	10.5918
622.366	7.3954	10.5844
622.545	7.3989	10.5792
622.725	7.42209	10.652
622.904	7.42653	10.6214
623.084	7.48007	10.6258
623.263	7.54064	10.6529
623.443	7.47551	10.5976
623.622	7.46515	10.6079
623.802	7.51535	10.6647
623.981	7.49266	10.6035
624.16	7.54512	10.6735
624.339	7.50802	10.6166
624.519	7.48084	10.6791
624.698	7.52006	10.798
624.877	7.51435	10.7258
625.056	7.57963	10.7382
625.235	7.5858	10.7247
625.415	7.65763	10.7873
625.594	7.57759	10.7493
625.773	7.66884	10.7971
625.952	7.69645	10.8503
626.131	7.68498	10.804
626.31	7.78031	10.8123
626.489	7.64628	10.8153
626.668	7.71809	10.7798
626.847	7.69159	10.8922
627.026	7.6789	10.825
627.205	7.77426	10.9733
627.383	7.78782	10.8222
627.562	7.71117	10.904
627.741	7.83651	10.9196
627.92	7.84628	11.0393
628.099	7.83926	10.9569
628.277	7.92052	10.9515
628.456	7.94503	11.0769
628.635	7.89505	11.012
628.813	7.98527	11.0694
628.992	7.96815	11.0515
629.171	8.05449	11.083
629.349	7.92961	11.0684
629.528	8.08689	11.1306
629.706	8.07228	11.1546
629.885	8.13636	11.1127
630.063	8.10449	11.2012
630.242	8.18348	11.2796
630.42	8.22459	11.2657
630.599	8.2194	11.2998
630.777	8.20512	11.2516
630.955	8.32491	11.3549
631.134	8.25332	11.3292
631.312	8.40059	11.3288
631.49	8.32924	11.4055
631.669	8.39366	11.4776
631.847	8.3947	11.4569
632.025	8.45054	11.4775
632.203	8.4478	11.5766
632.381	8.50024	11.4805
632.56	8.53398	11.6791
632.738	8.56549	11.652
632.916	8.71406	11.5514
633.094	8.77425	11.6779
633.272	8.67072	11.6094
633.45	8.81864	11.668
633.628	8.75532	11.7182
633.806	8.80228	11.7172
633.984	8.87802	11.808
634.162	8.91988	11.7627
634.339	8.89309	11.8426
634.517	9.01515	11.9388
634.695	9.07244	12
634.873	9.00138	11.9018
635.051	9.11477	11.9611
635.229	9.12143	12.0513
635.406	9.14501	12.0961
635.584	9.20294	12.1083
635.762	9.2869	12.1309
635.939	9.31571	12.1637
636.117	9.34053	12.3197
636.295	9.4035	12.2434
636.472	9.4258	12.2529
636.65	9.46159	12.3187
636.827	9.50406	12.2993
637.005	9.56737	12.2906
637.182	9.63645	12.3823
637.36	9.65889	12.4024
637.537	9.74366	12.5214
637.715	9.8188	12.5523
637.892	9.82206	12.5335
638.069	9.85171	12.6104
638.247	9.94997	12.6813
638.424	10.0008	12.6477
638.601	10.024	12.731
638.778	10.0951	12.6743
638.956	10.1334	12.7436
639.133	10.2305	12.7805
639.31	10.2859	12.8522
639.487	10.3877	12.8305
639.664	10.3428	12.9467
639.841	10.397	12.966
640.019	10.3279	13.0327
640.196	10.5387	13.1493
640.373	10.5443	13.1158
640.55	10.6341	13.178
640.727	10.8625	13.3472
640.904	10.728	13.3627
641.081	10.8197	13.414
641.257	11.0093	13.3824
641.434	10.9295	13.4449
641.611	11.0774	13.4261
641.788	11.2102	13.4776
641.965	11.2483	13.6449
642.142	11.1996	13.5362
642.318	11.3302	13.5823
642.495	11.2653	13.7345
642.672	11.4574	13.6901
642.848	11.446	13.8037
643.025	11.577	13.9836
643.202	11.6737	13.8839
643.378	11.9184	13.9289
643.555	11.7171	14.0226
643.731	11.847	14.0186
643.908	11.9048	14.1147
644.084	12.0326	14.2248
644.261	12.0495	14.13
644.437	12.1132	14.1974
644.614	12.2124	14.3055
644.79	12.3274	14.414
644.967	12.4191	14.5626
645.143	12.53	14.4953
645.319	12.6178	14.7205
645.496	12.52	14.6131
645.672	12.7206	14.5547
645.848	12.6873	14.6878
646.024	12.9322	14.8201
646.201	13.0617	14.8037
646.377	12.9032	14.8257
646.553	13.1824	14.9045
646.729	13.2651	15.0843
646.905	13.3628	15.109
647.081	13.4233	15.2576
647.257	13.4989	15.1872
647.433	13.5764	15.3329
647.609	13.7267	15.3734
647.785	13.8063	15.4541
647.961	13.7722	15.6118
648.137	13.9144	15.5296
648.313	14.1053	15.6111
648.489	14.0458	15.627
648.665	14.2444	15.7385
648.841	14.2008	15.8932
649.016	14.461	15.7459
649.192	14.4413	15.9065
649.368	14.6738	16.1067
649.544	14.6399	16.1438
649.719	14.7862	15.9468
649.895	14.7998	16.2664
650.071	15.0522	16.2646
650.246	14.9962	16.4626
650.422	15.1051	16.3688
650.597	15.0821	16.5712
650.773	15.4012	16.5015
650.949	15.5398	16.538
651.124	15.5305	16.6054
651.3	15.6781	16.7788
651.475	15.8641	16.9902
651.65	15.9224	16.9255
651.826	15.9308	16.9109
652.001	16.1048	17.075
652.177	16.2884	17.243
652.352	16.3092	17.0488
652.527	16.493	17.0724
652.702	16.4763	17.326
652.878	16.6563	17.4565
653.053	16.6415	17.4789
653.228	16.9461	17.6043
653.403	16.9532	17.5385
653.578	17.1916	17.7557
653.754	17.1883	17.8941
653.929	17.3588	17.7906
654.104	17.3788	17.8512
654.279	17.6115	17.8782
654.454	17.6963	18.0519
654.629	17.6952	18.2086
654.804	17.7555	18.3016
654.979	18.1207	18.2147
655.154	18.0694	18.4604
655.329	18.2687	18.527
655.503	18.3565	18.7293
655.678	18.6069	18.7128
655.853	18.6884	18.7914
656.028	18.9044	18.8604
656.203	18.9899	18.9017
656.377	19.1466	18.9385
656.552	19.001	19.2405
656.727	19.289	19.15
656.902	19.2859	19.2398
657.076	19.5971	19.3879
657.251	19.6261	19.4383
657.425	19.8132	19.4858
657.6	19.9137	19.6544
657.775	20.1003	19.8124
657.949	20.175	19.8024
658.124	20.3689	19.8959
658.298	20.4163	20.0625
658.472	20.5595	19.9813
658.647	20.7151	20.1655
658.821	20.9915	20.2388
658.996	20.9569	20.2937
659.17	21.1648	20.4125
659.344	21.206	20.7048
659.519	21.5095	20.5621
659.693	21.5926	20.8704
659.867	21.7205	20.8664
660.041	21.7482	20.7978
660.216	22.0327	20.9892
660.39	22.1987	21.1437
660.564	22.3659	21.099
660.738	22.5412	21.1289
660.912	22.6552	21.447
661.086	22.7272	21.6099
661.26	22.9061	21.52
661.434	23.0561	21.8471
661.608	23.1985	21.7779
661.782	23.2429	21.9335
661.956	23.4974	21.919
662.13	23.6868	22.0716
662.304	23.9376	22.2378
662.478	23.9303	22.1747
662.652	24.1815	22.2754
662.826	24.2569	22.619
662.999	24.5754	22.6413
663.173	24.681	22.7773
663.347	24.6934	22.8783
663.521	24.9916	23.017
663.694	25.1216	23.0367
663.868	25.2494	23.0881
664.042	25.454	23.2084
664.215	25.7624	23.5148
664.389	25.7199	23.5304
664.562	26.138	23.6982
664.736	26.1322	23.6904
664.909	26.1557	23.7837
665.083	26.4074	24.0794
665.256	26.5589	24.0707
665.43	26.7594	24.1468
665.603	27.017	24.2193
665.777	27.1769	24.3172
665.95	27.3909	24.4072
666.123	27.5077	24.4849
666.297	27.676	24.7627
666.47	27.7949	24.7797
666.643	27.9182	24.9875
666.816	28.103	25.0759
666.99	28.3636	25.1555
667.163	28.5992	25.3501
667.336	28.7228	25.3615
667.509	29.1603	25.4914
667.682	29.0389	25.7782
667.855	29.1184	25.6426
668.029	29.3796	25.8861
668.202	29.6311	26.2236
668.375	29.9323	26.2306
668.548	30.1294	26.2983
668.721	30.0878	26.3786
668.893	30.3783	26.4707
669.066	30.5256	26.6765
669.239	30.9293	26.9996
669.412	31.0729	26.8011
669.585	31.0526	26.8977
669.758	31.2625	27.2703
669.931	31.4689	27.1424
670.103	31.697	27.3588
670.276	31.7814	27.37
670.449	31.9764	27.9675
670.622	32.4101	27.701
670.794	32.6073	28.2502
670.967	32.9174	28.2597
671.139	32.8468	28.2134
671.312	33.1204	28.2218
671.485	33.3194	28.3001
671.657	33.7016	28.5004
671.83	33.7627	28.7778
672.002	34.0473	28.8743
672.175	34.2769	29.0339
672.347	34.5669	29.2617
672.519	34.4911	29.3928
672.692	34.6649	29.4711
672.864	35.0006	29.582
673.037	35.4005	29.7696
673.209	35.4351	29.9424
673.381	35.4171	30.1396
673.553	35.7963	30.2307
673.726	35.9901	30.3431
673.898	36.3267	30.3351
674.07	36.5198	30.5509
674.242	36.7117	30.7919
674.414	37.0987	31.0491
674.587	37.245	31.3662
674.759	37.5046	31.0343
674.931	37.4768	31.2992
675.103	38.0294	31.6346
675.275	38.4067	31.8888
675.447	38.5187	31.5203
675.619	38.8249	31.9674
675.791	38.8702	32.0283
675.963	38.7946	32.3574
676.134	39.2088	32.4998
676.306	39.2819	32.5556
676.478	39.7715	32.8383
676.65	39.9234	32.9069
676.822	40.3384	32.9228
676.994	40.3292	33.0819
677.165	40.7919	33.5139
677.337	40.7608	33.7453
677.509	40.934	33.7972
677.68	41.3937	33.8429
677.852	41.7547	34.0813
678.024	41.4796	34.2544
678.195	42.1461	34.3932
678.367	42.3521	34.4191
678.538	42.3139	34.5135
678.71	42.9416	34.8722
678.881	42.9767	35.0502
679.053	43.2268	35.3328
679.224	43.4501	35.3659
679.396	43.6864	35.515
679.567	43.9155	35.4974
679.738	44.5682	35.9462
679.91	44.4272	35.9665
680.081	44.3052	36.1153
680.252	44.7059	36.2161
680.424	45.3784	36.8024
680.595	45.4616	36.7037
680.766	45.9952	37.165
680.937	46.1408	37.0208
681.108	46.1186	37.4207
681.28	46.713	37.295
681.451	46.6269	37.4925
681.622	46.9309	38.0186
681.793	47.2927	38.027
681.964	47.5884	38.1957
682.135	47.678	38.5572
682.306	48.1606	38.5038
682.477	48.402	38.798
682.648	48.4953	38.6835
682.819	49.0127	39.2738
682.99	49.3774	39.1789
683.16	49.6627	39.6182
683.331	49.6938	39.8601
683.502	50.1158	40.0043
683.673	50.4238	40.0678
683.844	50.5422	39.9053
684.014	50.893	40.5007
684.185	51.151	40.4789
684.356	51.4079	40.8009
684.526	51.6567	41.2425
684.697	51.752	41.093
684.868	52.2173	41.531
685.038	52.3891	41.346
685.209	52.7335	41.9641
685.379	53.2931	41.9821
685.55	53.0836	42.52
685.72	53.596	42.4566
685.891	53.6785	42.5218
686.061	54.1682	42.9848
686.232	54.411	42.9877
686.402	54.8261	43.365
686.572	54.9774	43.1765
686.743	55.4046	43.7179
686.913	55.375	43.7969
687.083	55.9444	43.8355
687.254	55.8536	43.9926
687.424	56.8631	44.4912
687.594	56.5325	44.6058
687.764	56.8991	44.8138
687.934	56.9207	45.3574
688.104	57.7965	45.4425
688.275	58.031	45.5317
688.445	58.3264	45.5228
688.615	58.3459	45.9061
688.785	58.318	46.2626
688.955	58.8068	46.0918
689.125	58.9981	46.418
689.295	59.5399	46.857
689.465	59.7552	46.662
689.635	60.0878	47.2158
689.805	60.5813	47.1325
689.974	60.523	47.4585
690.144	61.291	48.215
690.314	60.8807	48.195
690.484	61.4689	48.421
690.654	61.7017	48.3302
690.823	62.0203	48.7699
690.993	62.5823	48.9849
691.163	62.5133	48.8631
691.332	62.4774	49.2777
691.502	63.5669	49.9254
691.672	63.3724	49.5903
691.841	63.4042	49.7599
692.011	64.4626	50.3862
692.18	64.395	50.4177
692.35	64.9736	50.68
692.519	64.4436	50.777
692.689	65.3053	51.3459
692.858	65.4579	50.9872
693.027	65.5254	51.3223
693.197	65.7683	51.7733
693.366	65.9465	51.6444
693.536	66.5737	52.2752
693.705	66.5739	52.1419
693.874	67.2752	52.1737
694.043	67.7103	52.6384
694.213	67.9018	53.2444
694.382	67.8976	53.4319
694.551	68.6301	53.1462
694.72	68.9014	53.7914
694.889	69.1169	53.9416
695.058	69.8865	54.2525
695.228	69.9473	54.6891
695.397	70.4547	54.4393
695.566	69.507	54.7382
695.735	70.1702	55.3316
695.904	71.2115	55.743
696.073	71.2226	55.7817
696.242	70.987	55.8775
696.41	71.4333	56.0924
696.579	71.8557	56.1623
696.748	71.8566	56.5599
696.917	72.1041	56.69
697.086	72.4403	57.1362
697.255	73.1371	57.342
697.423	73.6986	57.7557
697.592	73.5911	57.8275
697.761	73.6713	58.4944
697.929	74.3421	58.5603
698.098	74.4632	58.0612
698.267	74.8851	58.8795
698.435	74.9758	58.7923
698.604	75.5257	58.8583
698.772	75.8318	59.2906
698.941	75.4689	60.0624
699.109	76.0219	59.5794
699.278	76.3849	59.6352
699.446	76.8856	60.699
699.615	77.5936	60.6488
699.783	77.4487	60.6982
699.952	78.0218	61.1301
700.12	77.5918	61.2583
700.288	78.8427	61.6909
700.457	78.8429	61.587
700.625	78.9658	62.1098
700.793	79.4766	62.1262
700.961	78.5702	62.6155
701.13	79.5575	62.9936
701.298	79.6857	62.3073
701.466	79.7249	62.7522
701.634	80.0862	62.8481
701.802	80.6948	64.5679
701.97	81.4458	64.3008
702.138	80.9701	63.8451
702.306	82.2934	64.4597
702.474	81.6267	64.4228
702.642	82.4417	65.1213
702.81	82.4195	64.9253
702.978	82.8341	65.4823
703.146	82.0039	65.3992
703.314	82.6026	65.7149
703.482	82.7907	65.8014
703.65	83.9398	65.6112
703.818	84.2509	66.973
703.985	84.8991	67.2284
704.153	84.7318	67.0056
704.321	85.0647	66.2116
704.488	85.4976	67.3732
704.656	85.5618	67.3036
704.824	86.3927	68.7828
704.991	86.0474	67.9416
705.159	85.7315	68.4092
705.327	86.7645	68.0313
705.494	86.383	68.6415
705.662	87.8466	69.6142
705.829	87.2816	68.9017
705.997	87.6622	69.3986
706.164	88.0118	69.3492
706.332	89.0244	70.6432
706.499	88.1178	70.2413
706.666	88.0559	70.1867
706.834	88.3989	70.3981
707.001	89.846	70.8164
707.168	90.363	71.7306
707.336	90.0417	71.1889
707.503	89.8645	71.4979
707.67	89.5604	70.9321
707.837	91.0759	71.8972
708.004	91.2469	71.7654
708.172	90.9487	73.147
708.339	91.1883	71.4243
708.506	91.5365	73.1702
708.673	91.8094	72.2349
708.84	91.1804	73.1135
709.007	92.3385	73.605
709.174	91.817	73.9333
709.341	92.2545	74.3389
709.508	91.8915	73.1415
709.675	93.309	75.1657
709.842	92.3815	75.1991
710.009	94.199	75.1284
710.175	93.1313	74.1591
710.342	93.1681	74.5917
710.509	94.0511	75.8262
710.676	94.9204	75.9478
710.843	94.841	76.5446
711.009	95.8522	75.8803
711.176	95.529	76.412
711.343	95.6012	76.5473
711.509	95.2783	75.7899
711.676	96.6456	76.8564
711.843	95.5476	77.9707
712.009	97.2706	78.7131
712.176	96.3551	77.7041
712.342	96.016	77.198
712.509	96.5298	78.7635
712.675	98.3759	78.6698
712.842	97.2102	78.3896
713.008	98.1265	78.15
713.174	97.0555	77.9099
713.341	99.1857	79.8947
713.507	98.4557	79.8765
713.673	98.5064	80.2464
713.84	99.1032	79.2549
714.006	99.682	79.8302
714.172	98.6329	80.7127
714.339	98.6359	81.0418
714.505	99.743	80.4338
714.671	99.0565	80.067
714.837	99.8516	80.1647
715.003	101.096	80.1117
715.169	100.205	81.0568
715.335	101.401	81.7037
715.501	102.175	83.1286
715.667	101.605	80.8319
715.833	101.774	80.9947
715.999	102.542	81.1763
716.165	101.77	82.482
716.331	99.4243	80.348
716.497	103.829	84.2988
716.663	102.402	81.6608
716.829	103.511	83.9541
716.995	102.908	81.6399
717.161	102.04	84.2465
717.326	102.58	82.9537
717.492	102.772	83.6716
717.658	104.56	82.5103
717.823	103.213	84.458
717.989	102.773	83.9663
718.155	106.456	86.3063
718.32	103.962	84.7501
718.486	103.893	85.6759
718.651	105.386	86.7153
718.817	103.263	85.9727
718.983	104.808	86.068
719.148	104.505	85.84
719.314	104.553	86.3395
719.479	104.496	85.4326
719.644	104.063	86.0339
719.81	105.389	86.4788
719.975	104.071	85.2516
720.141	105.068	87.0942
720.306	107.088	87.5399
720.471	105.873	87.1264
720.636	106.093	86.6371
720.802	107.284	87.5511
720.967	106.861	86.4467
721.132	107.258	88.4793
721.297	108.511	87.0362
721.462	105.654	87.4667
721.628	108.49	89.3599
721.793	106.742	88.1964
721.958	107.868	87.2889
722.123	106.243	89.4563
722.288	106.207	87.0121
722.453	106.813	87.5297
722.618	109.093	89.4248
722.783	108.869	89.1577
722.948	109.705	88.3387
723.112	107.923	88.6642
723.277	107.924	88.3384
723.442	109.047	89.1946
723.607	108.917	87.067
723.772	109.504	88.9731
723.937	108.742	89.2086
724.101	109.277	92.0071
724.266	109.275	91.0821
724.431	110.386	90.8058
724.595	109.885	90.2462
724.76	111.045	91.5447
724.925	111.578	90.2608
725.089	111.192	91.4776
725.254	113.255	90.8953
725.418	110.864	91.9773
725.583	110.155	90.681
725.747	111.48	89.5406
725.912	110.707	88.9163
726.076	111.425	91.4465
726.241	112.916	91.2818
726.405	111.305	93.0038
726.57	111.4	90.5692
726.734	112.788	93.1065
726.898	114.871	92.5123
727.062	106.108	91.4035
727.227	112.457	91.6951
727.391	111.129	92.8755
727.555	112.426	92.1038
727.719	113.17	94.6178
727.884	113.489	93.5073
728.048	113.554	95.2052
728.212	113.133	91.5937
728.376	113.577	94.3266
728.54	114.989	93.6504
728.704	113.221	95.351
728.868	111.447	93.4511
729.032	113.754	94.2177
729.196	116.621	96.4338
729.36	115.137	96.4801
729.524	113.005	93.5821
729.688	115.105	96.1731
729.852	116.683	95.3813
730.015	115.111	97.3092
730.179	112.114	93.9079
730.343	117.292	96.6792
730.507	117.051	96.4827
730.671	113.465	96.2725
730.834	117.341	93.1887
730.998	114.753	99.3827
731.162	116.415	95.3316
731.325	116.901	96.9358
731.489	115.804	97.1277
731.652	114.261	94.6257
731.816	117.394	99.9841
731.98	115.66	96.97
732.143	116.525	96.4718
732.307	118.594	97.9304
732.47	115.825	94.6259
732.633	119.298	100.154
732.797	116.599	97.9867
732.96	114.805	98.0729
733.124	119.585	98.668
733.287	117.217	98.3581
733.45	121.224	98.8515
733.614	116.901	100.492
733.777	120.233	98.0384
733.94	120.45	98.4982
734.103	118.383	97.0689
734.266	120.024	99.7088
734.43	114.107	97.1665
734.593	114.805	98.2443
734.756	117.283	101.216
734.919	118.972	101.843
735.082	118.872	102.083
735.245	115.715	97.355
735.408	120.677	104.614
735.571	121.673	102.401
735.734	119.994	100.738
735.897	119.55	101.613
736.06	120.172	98.9767
736.223	123.743	105.379
736.386	122.564	102.51
736.549	120.056	101.833
736.711	120.531	99.6514
736.874	124.829	105.356
737.037	124.125	101.985
737.2	122.119	103.825
737.362	123.138	101.951
737.525	122.32	103.796
737.688	121.939	103.812
737.85	120.795	105.193
738.013	122.536	102.821
738.176	117.288	104.642
738.338	125.31	106.894
738.501	122.358	101.894
738.663	121.348	101.017
738.826	125.984	107.028
738.988	122.308	103.052
739.151	122.51	104.944
739.313	124.827	103.669
739.475	121.083	105.107
739.638	124.289	105.336
739.8	123.735	102.973
739.962	125.728	106.664
740.125	123.445	102.622
740.287	124.632	105.648
740.449	128.008	109.523
740.611	124.745	106.371
740.774	121.432	107.468
740.936	124.884	106.747
741.098	125.138	106.362
741.26	127.403	104.072
741.422	123.999	103.456
741.584	127.777	109.555
741.746	129.879	111.331
741.908	129.5	107.85
742.07	133.513	111.925
742.232	126.314	104.751
742.394	129.513	111.763
742.556	126.007	106.185
742.718	127.771	107.626
742.88	129.359	109.925
743.042	129.447	108.89
743.203	125.125	104
743.365	129.523	110.557
743.527	128.939	112.913
743.689	129.568	112.84
743.85	129.426	109.784
744.012	130.092	111.973
744.174	134.115	111.856
744.335	128.756	113.701
744.497	127.719	107.153
744.658	132.378	112.168
744.82	132.486	110.795
744.982	130.591	106.637
745.143	133.9	114.01
745.305	128.003	113.83
745.466	131.712	111.831
745.627	131.759	111.457
745.789	130.981	113.978
745.95	137.698	113.945
746.112	130.072	112.037
746.273	130.347	113.466
746.434	136.801	115.586
746.596	132.203	112.131
746.757	134.384	115.342
746.918	128.955	114.911
747.079	131.795	114.524
747.24	137.031	116.848
747.402	135.838	114.09
747.563	133.351	118.886
747.724	130.653	113.252
747.885	135.721	117.71
748.046	135.014	114.282
748.207	130.671	118.365
748.368	129.21	114.351
748.529	135.524	116.119
748.69	136.93	118.048
748.851	137.017	117.106
749.012	130.48	110.64
749.173	132.401	116.369
749.334	138.991	119.309
749.494	134.138	116.809
749.655	135.364	113.208
749.816	134.284	117.869
749.977	137.391	114.458
750.137	136.487	120.35
750.298	134.573	113.79
750.459	136.846	114.899
750.62	136.55	115.734
750.78	136.565	118.039
750.941	137.491	117.427
751.101	132.702	115.989
751.262	137.921	114.112
751.422	135.991	120.973
751.583	137.41	115.242
751.743	134.732	121.404
751.904	136.826	116.929
752.064	139.032	118.967
752.225	140.99	117.952
752.385	137.643	121.239
752.545	136.345	114.461
752.706	139.639	119.318
752.866	135.124	119.417
753.026	140.963	124.053
753.187	142.844	119.938
753.347	140.376	120.993
753.507	137.941	115.859
753.667	137.258	123.418
753.827	138.342	118.045
753.988	144.606	123.009
754.148	138.585	121.13
754.308	140.192	121.816
754.468	139.612	120.566
754.628	137.91	119.288
754.788	138.928	122.139
754.948	140.279	121.205
755.108	146.436	123.245
755.268	136.719	120.36
755.428	137.864	123.109
755.587	139.214	124.433
755.747	138.326	119.453
755.907	138.407	118.174
756.067	141.685	118.319
756.227	141.713	125.418
756.386	147.103	131.473
756.546	138.257	117.179
756.706	140.601	120.301
756.866	142.466	124.483
757.025	142.738	125.071
757.185	143.496	125.465
757.344	140.819	118.527
757.504	143.857	124.304
757.664	142.24	123.518
757.823	141.182	121.756
757.983	143.831	123.316
758.142	148.237	127.208
758.302	141.326	123.148
758.461	146.341	130.886
758.62	145.248	123.006
758.78	141.703	124.052
758.939	147.363	125.145
759.098	142.253	123.923
759.258	146.218	122.563
759.417	142.062	130.923
759.576	143.785	128.424
759.735	144.961	125.98
759.895	144.017	120.025
760.054	145.01	122.845
760.213	146.797	127.283
760.372	147.208	126.071
760.531	146.279	124.477
760.69	139.851	130.497
760.849	151.489	122.017
761.008	147.984	126.721
761.167	145.668	126.023
761.326	148.864	128.221
761.485	145.386	126.145
761.644	146.034	124.364
761.803	150.398	126.956
761.962	144.018	126.743
762.121	145.557	126.349
762.28	149.032	131.855
762.439	152.118	127.793
762.597	145.619	127.964
762.756	150.453	130.119
762.915	140.511	118.28
763.073	144.2	120.353
763.232	142.624	122.617
763.391	154.23	126.169
763.549	150.732	132.709
763.708	142.754	118.611
763.867	144.83	128.633
764.025	148.833	125.209
764.184	143.168	127.625
764.342	152.235	125.356
764.501	146.224	125.226
764.659	0	0
764.818	148.859	128.293
764.976	145.704	119.862
765.134	0	0
765.293	0	0
765.451	0	0
765.609	0	0
765.768	0	0
765.926	137.679	124.671
766.084	0	0
766.242	0	0
766.4	0	0
766.559	0	0
766.717	0	0
766.875	0	0
767.033	0	0
767.191	0	0
767.349	0	0
767.507	0	0
767.665	0	0
767.823	0	0
767.981	0	0
768.139	0	0
768.297	0	0
768.454	0	0
768.612	0	0
768.77	0	0
768.928	0	0
769.086	0	0
769.243	0	0
769.401	0	0
769.559	0	0
769.716	0	0
769.874	0	0
770.031	0	0
770.189	0	0
770.347	0	0
770.504	0	0
770.662	0	0
770.819	0	0
770.977	0	0
771.134	0	0
771.291	0	0
771.449	0	0
771.606	0	0
771.763	0	0
771.921	0	0
772.078	0	0
772.235	0	0
772.393	0	0
772.55	0	0
772.707	0	0
772.864	0	0
773.021	0	0
773.178	0	0
773.335	0	0
773.492	0	0
773.649	0	0
773.806	0	0
773.963	0	0
774.12	0	0
774.277	0	0
774.434	0	0
774.591	0	0
774.748	0	0
774.905	0	0
775.061	0	0
775.218	0	0
775.375	0	0
775.532	0	0
775.688	0	0
775.845	0	0
776.002	0	0
776.158	0	0
776.315	0	0
776.471	0	0
776.628	0	0
776.784	0	0
776.941	0	0
777.097	0	0
777.254	0	0
777.41	0	0
777.567	0	0
777.723	0	0
777.879	0	0
778.036	0	0
778.192	0	0
778.348	0	0
778.505	0	0
778.661	0	0
778.817	0	0
778.973	0	0
779.129	0	0
779.285	0	0
779.442	0	0
779.598	0	0
779.754	0	0
779.91	0	0
780.066	0	0
780.222	0	0
780.378	0	0
780.533	0	0
780.689	0	0
780.845	0	0
781.001	0	0
781.157	0	0
781.313	0	0
781.468	0	0
781.624	0	0
781.78	0	0
781.936	0	0
782.091	0	0
782.247	0	0
782.403	0	0
782.558	0	0
782.714	0	0
782.869	0	0
783.025	0	0
783.18	0	0
783.336	0	0
783.491	0	0
783.647	0	0
783.802	0	0
783.957	0	0
784.113	0	0
784.268	0	0
784.423	0	0
784.578	0	0
784.734	0	0
784.889	0	0
785.044	0	0
785.199	0	0
785.354	0	0
785.51	0	0
785.665	0	0
785.82	0	0
785.975	0	0
786.13	0	0
786.285	0	0
786.44	0	0
786.595	0	0
786.75	0	0
786.905	0	0
787.059	0	0
787.214	0	0
787.369	0	0
787.524	0	0
787.679	0	0
787.833	0	0
787.988	0	0
788.143	0	0
788.297	0	0
788.452	0	0
788.607	0	0
788.761	0	0
788.916	0	0
789.07	0	0
789.225	0	0
789.379	0	0
789.534	0	0
789.688	0	0
789.843	0	0
789.997	0	0
790.151	0	0
790.306	0	0
790.46	0	0
790.614	0	0
790.769	0	0
790.923	0	0
791.077	0	0
791.231	0	0
791.385	0	0
791.54	0	0
791.694	0	0
791.848	0	0
792.002	0	0
792.156	0	0
792.31	0	0
792.464	0	0
792.618	0	0
792.772	0	0
792.926	0	0
793.08	0	0
793.233	0	0
793.387	0	0
793.541	0	0
793.695	0	0
793.849	0	0
794.002	0	0
794.156	0	0
794.31	0	0
794.463	0	0
794.617	0	0
794.771	0	0
794.924	0	0
795.078	0	0
795.231	0	0
795.385	0	0
795.538	0	0
795.692	0	0
795.845	0	0
795.999	0	0
796.152	0	0
796.305	0	0
796.459	0	0
796.612	0	0
796.765	0	0
796.919	0	0
797.072	0	0
797.225	0	0
797.378	0	0
797.531	0	0
797.685	0	0
797.838	0	0
797.991	0	0
798.144	0	0
798.297	0	0
798.45	0	0
798.603	0	0
798.756	0	0
798.909	0	0
799.062	0	0
799.214	0	0
799.367	0	0
799.52	0	0
799.673	0	0
799.826	0	0
799.979	0	0
800.131	0	0
800.284	0	0
800.437	0	0
800.589	0	0
800.742	0	0
800.895	0	0
801.047	0	0
801.2	0	0
801.352	0	0
801.505	0	0
801.657	0	0
801.81	0	0
801.962	0	0
802.115	0	0
802.267	0	0
802.419	0	0
802.572	0	0
802.724	0	0
802.876	0	0
803.028	0	0
803.181	0	0
803.333	0	0
803.485	0	0
803.637	0	0
803.789	0	0
803.941	0	0
804.094	0	0
804.246	0	0
804.398	0	0
804.55	0	0
804.702	0	0
804.854	0	0
805.005	0	0
805.157	0	0
805.309	0	0
805.461	0	0
805.613	0	0
805.765	0	0
805.917	0	0
806.068	0	0
806.22	0	0
806.372	0	0
806.523	0	0
806.675	0	0
806.827	0	0
806.978	0	0
807.13	0	0
807.281	0	0
807.433	0	0
807.584	0	0
807.736	0	0
807.887	0	0
808.039	0	0
808.19	0	0
808.342	0	0
808.493	0	0
808.644	0	0
808.796	0	0
808.947	0	0
809.098	0	0
809.249	0	0
