# Date: Thu Nov 9 15:31:48 2023
# LED: 1
#Wavelength	#Inital reflectance [%]	#Final reflectance [%]
91.0096	0	0
91.2522	0	0
91.4948	0	0
91.7374	0	0
91.98	0	0
92.2226	0	0
92.4651	0	0
92.7076	0	0
92.9501	0	0
93.1925	0	0
93.4349	0	0
93.6773	0	0
93.9197	0	0
94.1621	0	0
94.4044	0	0
94.6467	0	0
94.889	0	0
95.1312	0	0
95.3734	0	0
95.6156	0	0
95.8578	0	0
96.0999	0	0
96.3421	0	0
96.5842	0	0
96.8262	0	0
97.0683	0	0
97.3103	0	0
97.5523	0	0
97.7943	0	0
98.0362	0	0
98.2782	0	0
98.5201	0	0
98.7619	0	0
99.0038	0	0
99.2456	0	0
99.4874	0	0
99.7292	0	0
99.9709	0	0
100.213	0	0
100.454	0	0
100.696	0	0
100.938	0	0
101.179	0	0
101.421	0	0
101.662	0	0
101.904	0	0
102.146	0	0
102.387	0	0
102.629	0	0
102.87	0	0
103.111	0	0
103.353	0	0
103.594	0	0
103.835	0	0
104.077	0	0
104.318	0	0
104.559	0	0
104.801	0	0
105.042	0	0
105.283	0	0
105.524	0	0
105.765	0	0
106.006	0	0
106.248	0	0
106.489	0	0
106.73	0	0
106.971	0	0
107.212	0	0
107.453	0	0
107.694	0	0
107.935	0	0
108.175	0	0
108.416	0	0
108.657	0	0
108.898	0	0
109.139	0	0
109.38	0	0
109.62	0	0
109.861	0	0
110.102	0	0
110.342	0	0
110.583	0	0
110.824	0	0
111.064	0	0
111.305	0	0
111.545	0	0
111.786	0	0
112.026	0	0
112.267	0	0
112.507	0	0
112.748	0	0
112.988	0	0
113.228	0	0
113.469	0	0
113.709	0	0
113.949	0	0
114.19	0	0
114.43	0	0
114.67	0	0
114.91	0	0
115.151	0	0
115.391	0	0
115.631	0	0
115.871	0	0
116.111	0	0
116.351	0	0
116.591	0	0
116.831	0	0
117.071	0	0
117.311	0	0
117.551	0	0
117.791	0	0
118.031	0	0
118.27	0	0
118.51	0	0
118.75	0	0
118.99	0	0
119.23	0	0
119.469	0	0
119.709	0	0
119.949	0	0
120.188	0	0
120.428	0	0
120.667	0	0
120.907	0	0
121.147	0	0
121.386	0	0
121.626	0	0
121.865	0	0
122.104	0	0
122.344	0	0
122.583	0	0
122.823	0	0
123.062	0	0
123.301	0	0
123.541	0	0
123.78	0	0
124.019	0	0
124.258	0	0
124.498	0	0
124.737	0	0
124.976	0	0
125.215	0	0
125.454	0	0
125.693	0	0
125.932	0	0
126.171	0	0
126.41	0	0
126.649	0	0
126.888	0	0
127.127	0	0
127.366	0	0
127.605	0	0
127.844	0	0
128.082	0	0
128.321	0	0
128.56	0	0
128.799	0	0
129.037	0	0
129.276	0	0
129.515	0	0
129.753	0	0
129.992	0	0
130.231	0	0
130.469	0	0
130.708	0	0
130.946	0	0
131.185	0	0
131.423	0	0
131.662	0	0
131.9	0	0
132.138	0	0
132.377	0	0
132.615	0	0
132.853	0	0
133.092	0	0
133.33	0	0
133.568	0	0
133.806	0	0
134.045	0	0
134.283	0	0
134.521	0	0
134.759	0	0
134.997	0	0
135.235	0	0
135.473	0	0
135.711	0	0
135.949	0	0
136.187	0	0
136.425	0	0
136.663	0	0
136.901	0	0
137.139	0	0
137.377	0	0
137.614	0	0
137.852	0	0
138.09	0	0
138.328	0	0
138.565	0	0
138.803	0	0
139.041	0	0
139.278	0	0
139.516	0	0
139.754	0	0
139.991	0	0
140.229	0	0
140.466	0	0
140.704	0	0
140.941	0	0
141.179	0	0
141.416	0	0
141.653	0	0
141.891	0	0
142.128	0	0
142.365	0	0
142.603	0	0
142.84	0	0
143.077	0	0
143.314	0	0
143.552	0	0
143.789	0	0
144.026	0	0
144.263	0	0
144.5	0	0
144.737	0	0
144.974	0	0
145.211	0	0
145.448	0	0
145.685	0	0
145.922	0	0
146.159	0	0
146.396	0	0
146.633	0	0
146.869	0	0
147.106	0	0
147.343	0	0
147.58	0	0
147.817	0	0
148.053	0	0
148.29	0	0
148.527	0	0
148.763	0	0
149	0	0
149.236	0	0
149.473	0	0
149.71	0	0
149.946	0	0
150.182	0	0
150.419	0	0
150.655	0	0
150.892	0	0
151.128	0	0
151.365	0	0
151.601	0	0
151.837	0	0
152.073	0	0
152.31	0	0
152.546	0	0
152.782	0	0
153.018	0	0
153.254	0	0
153.491	0	0
153.727	0	0
153.963	0	0
154.199	0	0
154.435	0	0
154.671	0	0
154.907	0	0
155.143	0	0
155.379	0	0
155.615	0	0
155.851	0	0
156.086	0	0
156.322	0	0
156.558	0	0
156.794	0	0
157.03	0	0
157.265	0	0
157.501	0	0
157.737	0	0
157.972	0	0
158.208	0	0
158.444	0	0
158.679	0	0
158.915	0	0
159.15	0	0
159.386	0	0
159.621	0	0
159.857	0	0
160.092	0	0
160.328	0	0
160.563	0	0
160.798	0	0
161.034	0	0
161.269	0	0
161.504	0	0
161.739	0	0
161.975	0	0
162.21	0	0
162.445	0	0
162.68	0	0
162.915	0	0
163.15	0	0
163.385	0	0
163.621	0	0
163.856	0	0
164.091	0	0
164.326	0	0
164.561	0	0
164.795	0	0
165.03	0	0
165.265	0	0
165.5	0	0
165.735	0	0
165.97	0	0
166.204	0	0
166.439	0	0
166.674	0	0
166.909	0	0
167.143	0	0
167.378	0	0
167.613	0	0
167.847	0	0
168.082	0	0
168.316	0	0
168.551	0	0
168.785	0	0
169.02	0	0
169.254	0	0
169.489	0	0
169.723	0	0
169.958	0	0
170.192	0	0
170.426	0	0
170.66	0	0
170.895	0	0
171.129	0	0
171.363	0	0
171.597	0	0
171.832	0	0
172.066	0	0
172.3	0	0
172.534	0	0
172.768	0	0
173.002	0	0
173.236	0	0
173.47	0	0
173.704	0	0
173.938	0	0
174.172	0	0
174.406	0	0
174.64	0	0
174.874	0	0
175.107	0	0
175.341	0	0
175.575	0	0
175.809	0	0
176.042	0	0
176.276	0	0
176.51	0	0
176.743	0	0
176.977	0	0
177.211	0	0
177.444	0	0
177.678	0	0
177.911	0	0
178.145	0	0
178.378	0	0
178.612	0	0
178.845	0	0
179.079	0	0
179.312	0	0
179.545	0	0
179.779	0	0
180.012	0	0
180.245	0	0
180.478	0	0
180.712	0	0
180.945	0	0
181.178	0	0
181.411	0	0
181.644	0	0
181.877	0	0
182.111	0	0
182.344	0	0
182.577	0	0
182.81	0	0
183.043	0	0
183.275	0	0
183.508	0	0
183.741	0	0
183.974	0	0
184.207	0	0
184.44	0	0
184.673	0	0
184.905	0	0
185.138	0	0
185.371	0	0
185.604	0	0
185.836	0	0
186.069	0	0
186.302	0	0
186.534	0	0
186.767	0	0
186.999	0	0
187.232	0	0
187.464	0	0
187.697	0	0
187.929	0	0
188.162	0	0
188.394	0	0
188.626	0	0
188.859	0	0
189.091	0	0
189.323	0	0
189.556	0	0
189.788	0	0
190.02	0	0
190.252	0	0
190.484	0	0
190.717	0	0
190.949	0	0
191.181	0	0
191.413	0	0
191.645	0	0
191.877	0	0
192.109	0	0
192.341	0	0
192.573	0	0
192.805	0	0
193.037	0	0
193.268	0	0
193.5	0	0
193.732	0	0
193.964	0	0
194.196	0	0
194.427	0	0
194.659	0	0
194.891	0	0
195.123	0	0
195.354	0	0
195.586	0	0
195.817	0	0
196.049	0	0
196.281	0	0
196.512	0	0
196.744	0	0
196.975	0	0
197.206	0	0
197.438	0	0
197.669	0	0
197.901	0	0
198.132	0	0
198.363	0	0
198.595	0	0
198.826	0	0
199.057	0	0
199.288	0	0
199.519	0	0
199.751	0	0
199.982	0	0
200.213	0	0
200.444	0	0
200.675	0	0
200.906	0	0
201.137	0	0
201.368	0	0
201.599	0	0
201.83	0	0
202.061	0	0
202.292	0	0
202.523	0	0
202.754	0	0
202.984	0	0
203.215	0	0
203.446	0	0
203.677	0	0
203.907	0	0
204.138	0	0
204.369	0	0
204.599	0	0
204.83	0	0
205.061	0	0
205.291	0	0
205.522	0	0
205.752	0	0
205.983	0	0
206.213	0	0
206.444	0	0
206.674	0	0
206.904	0	0
207.135	0	0
207.365	0	0
207.595	0	0
207.826	0	0
208.056	0	0
208.286	0	0
208.516	0	0
208.747	0	0
208.977	0	0
209.207	0	0
209.437	0	0
209.667	0	0
209.897	0	0
210.127	0	0
210.357	0	0
210.587	0	0
210.817	0	0
211.047	0	0
211.277	0	0
211.507	0	0
211.737	0	0
211.967	0	0
212.196	0	0
212.426	0	0
212.656	0	0
212.886	0	0
213.115	0	0
213.345	0	0
213.575	0	0
213.804	0	0
214.034	0	0
214.264	0	0
214.493	0	0
214.723	0	0
214.952	0	0
215.182	0	0
215.411	0	0
215.641	0	0
215.87	0	0
216.099	0	0
216.329	0	0
216.558	0	0
216.787	0	0
217.017	0	0
217.246	0	0
217.475	0	0
217.704	0	0
217.934	0	0
218.163	0	0
218.392	0	0
218.621	0	0
218.85	0	0
219.079	0	0
219.308	0	0
219.537	0	0
219.766	0	0
219.995	0	0
220.224	0	0
220.453	0	0
220.682	0	0
220.911	0	0
221.14	0	0
221.368	0	0
221.597	0	0
221.826	0	0
222.055	0	0
222.283	0	0
222.512	0	0
222.741	0	0
222.969	0	0
223.198	0	0
223.426	0	0
223.655	0	0
223.884	0	0
224.112	0	0
224.341	0	0
224.569	0	0
224.797	0	0
225.026	0	0
225.254	0	0
225.483	0	0
225.711	0	0
225.939	0	0
226.168	0	0
226.396	0	0
226.624	0	0
226.852	0	0
227.08	0	0
227.309	0	0
227.537	0	0
227.765	0	0
227.993	0	0
228.221	0	0
228.449	0	0
228.677	0	0
228.905	0	0
229.133	0	0
229.361	0	0
229.589	0	0
229.817	0	0
230.045	0	0
230.272	0	0
230.5	0	0
230.728	0	0
230.956	0	0
231.183	0	0
231.411	0	0
231.639	0	0
231.866	0	0
232.094	0	0
232.322	0	0
232.549	0	0
232.777	0	0
233.004	0	0
233.232	0	0
233.459	0	0
233.687	0	0
233.914	0	0
234.142	0	0
234.369	0	0
234.596	0	0
234.824	0	0
235.051	0	0
235.278	0	0
235.506	0	0
235.733	0	0
235.96	0	0
236.187	0	0
236.414	0	0
236.641	0	0
236.869	0	0
237.096	0	0
237.323	0	0
237.55	0	0
237.777	0	0
238.004	0	0
238.231	0	0
238.458	0	0
238.685	0	0
238.911	0	0
239.138	0	0
239.365	0	0
239.592	0	0
239.819	0	0
240.045	0	0
240.272	0	0
240.499	0	0
240.726	0	0
240.952	0	0
241.179	0	0
241.405	0	0
241.632	0	0
241.859	0	0
242.085	0	0
242.312	0	0
242.538	0	0
242.764	0	0
242.991	0	0
243.217	0	0
243.444	0	0
243.67	0	0
243.896	0	0
244.123	0	0
244.349	0	0
244.575	0	0
244.801	0	0
245.028	0	0
245.254	0	0
245.48	0	0
245.706	0	0
245.932	0	0
246.158	0	0
246.384	0	0
246.61	0	0
246.836	0	0
247.062	0	0
247.288	0	0
247.514	0	0
247.74	0	0
247.966	0	0
248.192	0	0
248.418	0	0
248.643	0	0
248.869	0	0
249.095	0	0
249.321	0	0
249.546	0	0
249.772	0	0
249.998	0	0
250.223	0	0
250.449	0	0
250.675	0	0
250.9	0	0
251.126	0	0
251.351	0	0
251.577	0	0
251.802	0	0
252.027	0	0
252.253	0	0
252.478	0	0
252.704	0	0
252.929	0	0
253.154	0	0
253.379	0	0
253.605	0	0
253.83	0	0
254.055	0	0
254.28	0	0
254.505	0	0
254.731	0	0
254.956	0	0
255.181	0	0
255.406	0	0
255.631	0	0
255.856	0	0
256.081	0	0
256.306	0	0
256.531	0	0
256.756	0	0
256.98	0	0
257.205	0	0
257.43	0	0
257.655	0	0
257.88	0	0
258.104	0	0
258.329	0	0
258.554	0	0
258.779	0	0
259.003	0	0
259.228	0	0
259.452	0	0
259.677	0	0
259.902	0	0
260.126	0	0
260.351	0	0
260.575	0	0
260.799	0	0
261.024	0	0
261.248	0	0
261.473	0	0
261.697	0	0
261.921	0	0
262.146	0	0
262.37	0	0
262.594	0	0
262.818	0	0
263.043	0	0
263.267	0	0
263.491	0	0
263.715	0	0
263.939	0	0
264.163	0	0
264.387	0	0
264.611	0	0
264.835	0	0
265.059	0	0
265.283	0	0
265.507	0	0
265.731	0	0
265.955	0	0
266.179	0	0
266.402	0	0
266.626	0	0
266.85	0	0
267.074	0	0
267.298	0	0
267.521	0	0
267.745	0	0
267.969	0	0
268.192	0	0
268.416	0	0
268.639	0	0
268.863	0	0
269.086	0	0
269.31	0	0
269.533	0	0
269.757	0	0
269.98	0	0
270.204	0	0
270.427	0	0
270.65	0	0
270.874	0	0
271.097	0	0
271.32	0	0
271.543	0	0
271.767	0	0
271.99	0	0
272.213	0	0
272.436	0	0
272.659	0	0
272.882	0	0
273.105	0	0
273.328	0	0
273.551	0	0
273.774	0	0
273.997	0	0
274.22	0	0
274.443	0	0
274.666	0	0
274.889	0	0
275.112	0	0
275.335	0	0
275.557	0	0
275.78	0	0
276.003	0	0
276.226	0	0
276.448	0	0
276.671	0	0
276.894	0	0
277.116	0	0
277.339	0	0
277.561	0	0
277.784	0	0
278.007	0	0
278.229	0	0
278.452	0	0
278.674	0	0
278.896	0	0
279.119	0	0
279.341	0	0
279.563	0	0
279.786	0	0
280.008	0	0
280.23	0	0
280.453	0	0
280.675	0	0
280.897	0	0
281.119	0	0
281.341	0	0
281.563	0	0
281.785	0	0
282.008	0	0
282.23	0	0
282.452	0	0
282.674	0	0
282.896	0	0
283.117	0	0
283.339	0	0
283.561	0	0
283.783	0	0
284.005	0	0
284.227	0	0
284.449	0	0
284.67	0	0
284.892	0	0
285.114	0	0
285.336	0	0
285.557	0	0
285.779	0	0
286	0	0
286.222	0	0
286.444	0	0
286.665	0	0
286.887	0	0
287.108	0	0
287.33	0	0
287.551	0	0
287.772	0	0
287.994	0	0
288.215	0	0
288.437	0	0
288.658	0	0
288.879	0	0
289.1	0	0
289.322	0	0
289.543	0	0
289.764	0	0
289.985	0	0
290.206	0	0
290.427	0	0
290.649	0	0
290.87	0	0
291.091	0	0
291.312	0	0
291.533	0	0
291.754	0	0
291.974	0	0
292.195	0	0
292.416	0	0
292.637	0	0
292.858	0	0
293.079	0	0
293.3	0	0
293.52	0	0
293.741	0	0
293.962	0	0
294.182	0	0
294.403	0	0
294.624	0	0
294.844	0	0
295.065	0	0
295.286	0	0
295.506	0	0
295.727	0	0
295.947	0	0
296.168	0	0
296.388	0	0
296.608	0	0
296.829	0	0
297.049	0	0
297.269	0	0
297.49	0	0
297.71	0	0
297.93	0	0
298.151	0	0
298.371	0	0
298.591	0	0
298.811	0	0
299.031	0	0
299.251	0	0
299.471	0	0
299.691	0	0
299.911	0	0
300.132	0	0
300.352	0	0
300.571	0	0
300.791	0	0
301.011	0	0
301.231	0	0
301.451	0	0
301.671	0	0
301.891	0	0
302.11	0	0
302.33	0	0
302.55	0	0
302.77	0	0
302.989	0	0
303.209	0	0
303.429	0	0
303.648	0	0
303.868	0	0
304.087	0	0
304.307	0	0
304.526	0	0
304.746	0	0
304.965	0	0
305.185	0	0
305.404	0	0
305.624	0	0
305.843	0	0
306.062	0	0
306.282	0	0
306.501	0	0
306.72	0	0
306.939	0	0
307.159	0	0
307.378	0	0
307.597	0	0
307.816	0	0
308.035	0	0
308.254	0	0
308.473	0	0
308.692	0	0
308.911	0	0
309.13	0	0
309.349	0	0
309.568	0	0
309.787	0	0
310.006	0	0
310.225	0	0
310.444	0	0
310.662	0	0
310.881	0	0
311.1	0	0
311.319	0	0
311.537	0	0
311.756	0	0
311.975	0	0
312.193	0	0
312.412	0	0
312.631	0	0
312.849	0	0
313.068	0	0
313.286	0	0
313.505	0	0
313.723	0	0
313.941	0	0
314.16	0	0
314.378	0	0
314.597	0	0
314.815	0	0
315.033	0	0
315.252	0	0
315.47	0	0
315.688	0	0
315.906	0	0
316.124	0	0
316.343	0	0
316.561	0	0
316.779	0	0
316.997	0	0
317.215	0	0
317.433	0	0
317.651	0	0
317.869	0	0
318.087	0	0
318.305	0	0
318.523	0	0
318.741	0	0
318.958	0	0
319.176	0	0
319.394	0	0
319.612	0	0
319.83	0	0
320.047	0	0
320.265	0	0
320.483	0	0
320.7	0	0
320.918	0	0
321.136	0	0
321.353	0	0
321.571	0	0
321.788	0	0
322.006	0	0
322.223	0	0
322.441	0	0
322.658	0	0
322.875	0	0
323.093	0	0
323.31	0	0
323.528	0	0
323.745	0	0
323.962	0	0
324.179	0	0
324.397	0	0
324.614	0	0
324.831	0	0
325.048	0	0
325.265	0	0
325.482	0	0
325.699	0	0
325.916	0	0
326.133	0	0
326.35	0	0
326.567	0	0
326.784	0	0
327.001	0	0
327.218	0	0
327.435	0	0
327.652	0	0
327.869	0	0
328.086	0	0
328.302	0	0
328.519	0	0
328.736	0	0
328.953	0	0
329.169	0	0
329.386	0	0
329.602	0	0
329.819	0	0
330.036	0	0
330.252	0	0
330.469	0	0
330.685	0	0
330.902	0	0
331.118	0	0
331.335	0	0
331.551	0	0
331.767	0	0
331.984	0	0
332.2	0	0
332.416	0	0
332.633	0	0
332.849	0	0
333.065	0	0
333.281	0	0
333.497	0	0
333.714	0	0
333.93	0	0
334.146	0	0
334.362	0	0
334.578	0	0
334.794	0	0
335.01	0	0
335.226	0	0
335.442	0	0
335.658	0	0
335.874	0	0
336.09	0	0
336.305	0	0
336.521	0	0
336.737	0	0
336.953	0	0
337.168	0	0
337.384	0	0
337.6	0	0
337.816	0	0
338.031	0	0
338.247	0	0
338.462	0	0
338.678	0	0
338.894	0	0
339.109	0	0
339.325	0	0
339.54	0	0
339.755	0	0
339.971	0	0
340.186	0	0
340.402	0	0
340.617	0	0
340.832	0	0
341.048	0	0
341.263	0	0
341.478	0	0
341.693	0	0
341.909	0	0
342.124	0	0
342.339	0	0
342.554	0	0
342.769	0	0
342.984	0	0
343.199	0	0
343.414	0	0
343.629	0	0
343.844	0	0
344.059	0	0
344.274	0	0
344.489	0	0
344.704	0	0
344.919	0	0
345.133	0	0
345.348	0	0
345.563	0	0
345.778	0	0
345.992	0	0
346.207	0	0
346.422	0	0
346.636	0	0
346.851	0	0
347.066	0	0
347.28	0	0
347.495	0	0
347.709	0	0
347.924	0	0
348.138	0	0
348.353	0	0
348.567	0	0
348.782	0	0
348.996	0	0
349.21	0	0
349.425	0	0
349.639	0	0
349.853	0	0
350.067	0	0
350.282	0	0
350.496	0	0
350.71	0	0
350.924	0	0
351.138	0	0
351.352	0	0
351.566	0	0
351.78	0	0
351.994	0	0
352.208	0	0
352.422	0	0
352.636	0	0
352.85	0	0
353.064	0	0
353.278	0	0
353.492	0	0
353.706	0	0
353.919	0	0
354.133	0	0
354.347	0	0
354.561	0	0
354.774	0	0
354.988	0	0
355.202	0	0
355.415	0	0
355.629	0	0
355.842	0	0
356.056	0	0
356.269	0	0
356.483	0	0
356.696	0	0
356.91	0	0
357.123	0	0
357.337	0	0
357.55	0	0
357.763	0	0
357.977	0	0
358.19	0	0
358.403	0	0
358.616	0	0
358.83	0	0
359.043	0	0
359.256	0	0
359.469	0	0
359.682	0	0
359.895	0	0
360.108	0	0
360.321	0	0
360.534	0	0
360.747	0	0
360.96	0	0
361.173	0	0
361.386	0	0
361.599	0	0
361.812	0	0
362.025	0	0
362.238	0	0
362.45	0	0
362.663	0	0
362.876	0	0
363.089	0	0
363.301	0	0
363.514	0	0
363.727	0	0
363.939	0	0
364.152	0	0
364.364	0	0
364.577	0	0
364.789	0	0
365.002	0	0
365.214	0	0
365.427	0	0
365.639	0	0
365.852	0	0
366.064	0	0
366.276	0	0
366.489	0	0
366.701	0	0
366.913	0	0
367.125	0	0
367.338	0	0
367.55	0	0
367.762	0	0
367.974	0	0
368.186	0	0
368.398	0	0
368.61	0	0
368.822	0	0
369.034	0	0
369.246	0	0
369.458	0	0
369.67	0	0
369.882	0	0
370.094	0	0
370.306	0	0
370.518	0	0
370.73	0	0
370.941	0	0
371.153	0	0
371.365	0	0
371.577	0	0
371.788	0	0
372	0	0
372.212	0	0
372.423	0	0
372.635	0	0
372.846	0	0
373.058	0	0
373.269	0	0
373.481	0	0
373.692	0	0
373.904	0	0
374.115	0	0
374.327	0	0
374.538	0	0
374.749	0	0
374.961	0	0
375.172	0	0
375.383	0	0
375.594	0	0
375.805	0	0
376.017	0	0
376.228	0	0
376.439	0	0
376.65	0	0
376.861	0	0
377.072	0	0
377.283	0	0
377.494	0	0
377.705	0	0
377.916	0	0
378.127	0	0
378.338	0	0
378.549	0	0
378.76	0	0
378.971	0	0
379.181	0	0
379.392	0	0
379.603	0	0
379.814	0	0
380.024	0	0
380.235	0	0
380.446	0	0
380.656	0	0
380.867	0	0
381.078	0	0
381.288	0	0
381.499	0	0
381.709	0	0
381.92	0	0
382.13	0	0
382.34	0	0
382.551	0	0
382.761	0	0
382.972	0	0
383.182	0	0
383.392	0	0
383.603	0	0
383.813	0	0
384.023	0	0
384.233	0	0
384.443	0	0
384.654	0	0
384.864	0	0
385.074	0	0
385.284	0	0
385.494	0	0
385.704	0	0
385.914	0	0
386.124	0	0
386.334	0	0
386.544	0	0
386.754	0	0
386.964	0	0
387.173	0	0
387.383	0	0
387.593	0	0
387.803	0	0
388.013	0	0
388.222	0	0
388.432	0	0
388.642	0	0
388.851	0	0
389.061	0	0
389.271	0	0
389.48	0	0
389.69	0	0
389.899	0	0
390.109	0	0
390.318	0	0
390.528	0	0
390.737	0	0
390.947	0	0
391.156	0	0
391.365	0	0
391.575	0	0
391.784	0	0
391.993	0	0
392.202	0	0
392.412	0	0
392.621	0	0
392.83	0	0
393.039	0	0
393.248	0	0
393.457	0	0
393.666	0	0
393.876	0	0
394.085	0	0
394.294	0	0
394.503	0	0
394.711	0	0
394.92	0	0
395.129	0	0
395.338	0	0
395.547	0	0
395.756	0	0
395.965	0	0
396.173	0	0
396.382	0	0
396.591	0	0
396.8	0	0
397.008	0	0
397.217	0	0
397.426	0	0
397.634	0	0
397.843	0	0
398.051	0	0
398.26	0	0
398.468	0	0
398.677	0	0
398.885	0	0
399.094	0	0
399.302	0	0
399.51	0	0
399.719	0	0
399.927	0	0
400.135	0	0
400.344	0	0
400.552	0	0
400.76	0	0
400.968	0	0
401.176	0	0
401.385	0	0
401.593	0	0
401.801	0	0
402.009	0	0
402.217	0	0
402.425	0	0
402.633	0	0
402.841	0	0
403.049	0	0
403.257	0	0
403.465	0	0
403.673	0	0
403.88	0	0
404.088	0	0
404.296	0	0
404.504	0	0
404.712	0	0
404.919	0	0
405.127	0	0
405.335	0	0
405.542	0	0
405.75	0	0
405.958	0	0
406.165	0	0
406.373	0	0
406.58	0	0
406.788	0	0
406.995	0	0
407.203	0	0
407.41	0	0
407.617	0	0
407.825	0	0
408.032	0	0
408.239	29.2633	28.6772
408.447	32.4721	32.2918
408.654	29.6781	29.9965
408.861	33.3962	34.9119
409.068	32.6994	31.1192
409.276	34.4894	29.0669
409.483	35.1046	32.0079
409.69	32.4116	32.4116
409.897	35.22	32.7866
410.104	33.6543	34.0118
410.311	35.948	33.7755
410.518	36.4274	32.9904
410.725	35.3671	34.8965
410.932	34.5774	32.7762
411.139	36.6839	32.6592
411.346	35.5994	33.6672
411.553	36.1529	31.27
411.76	37.2506	36.0594
411.967	36.5566	32.9242
412.174	38.0449	35.2285
412.381	37.3009	33.6576
412.587	37.5205	35.6535
412.794	36.9641	34.0944
413.001	38.2485	34.6902
413.208	37.819	34.873
413.414	39.084	36.8014
413.621	37.6218	35.2424
413.828	38.289	36.1987
414.034	39.0992	36.6187
414.241	38.2335	35.5955
414.447	38.8961	36.4897
414.654	40.1322	36.6114
414.86	40.512	36.9417
415.067	40.6968	37.2899
415.273	40.6313	37.7285
415.48	41.1477	37.4252
415.686	40.3759	36.8622
415.893	40.244	37.1688
416.099	41.1709	37.0676
416.305	40.1509	37.4766
416.512	41.1497	37.0159
416.718	41.6861	37.8785
416.924	40.9821	38.5906
417.131	41.1717	38.2138
417.337	41.804	37.9802
417.543	40.9587	37.4457
417.749	41.7923	37.7103
417.955	41.9131	38.5544
418.161	41.7768	37.4589
418.367	41.865	38.3522
418.574	42.1935	38.3701
418.78	42.0898	38.2944
418.986	42.8119	38.5656
419.192	42.3757	38.3221
419.398	42.0043	38.0706
419.604	42.3571	38.1493
419.809	42.4653	37.7628
420.015	42.8483	38.6466
420.221	43.09	38.2437
420.427	42.8513	38.9621
420.633	42.646	38.5683
420.839	42.8292	38.5188
421.044	43.0918	38.6245
421.25	42.4418	38.8963
421.456	43.482	38.7348
421.662	43.1734	38.6447
421.867	43.4826	38.9428
422.073	43.7246	38.9092
422.278	43.23	39.1655
422.484	43.8828	39.3574
422.69	43.7108	39.0706
422.895	43.4544	39.3191
423.101	43.4788	39.0859
423.306	43.6969	39.3876
423.512	43.7971	39.1175
423.717	43.9113	39.0365
423.922	43.9903	38.8111
424.128	44.0858	39.2056
424.333	44.1203	39.0758
424.539	43.9521	39.33
424.744	44.1232	39.2187
424.949	44.1516	39.7402
425.154	44.4937	39.5797
425.36	44.4031	39.6136
425.565	44.2393	39.3687
425.77	44.478	39.0401
425.975	44.7072	39.7325
426.18	45.0209	39.0994
426.385	44.6509	39.6348
426.591	44.7107	39.4752
426.796	44.9494	39.6165
427.001	44.6313	39.9214
427.206	44.7444	39.9057
427.411	44.6439	39.6634
427.616	44.8963	39.6162
427.821	45.252	39.5305
428.026	45.2407	39.8727
428.23	44.9159	39.9127
428.435	44.9874	39.8798
428.64	45.3353	39.7687
428.845	45.5983	39.8567
429.05	45.2806	39.9991
429.254	45.2026	39.9394
429.459	45.1977	39.8569
429.664	45.3265	39.5839
429.869	45.431	40.1508
430.073	45.537	40.1118
430.278	45.5069	40.1456
430.483	45.4427	40.0998
430.687	45.5048	40.1322
430.892	45.3631	39.7106
431.096	45.658	39.9537
431.301	45.6172	40.0239
431.505	45.8425	40.1804
431.71	45.5649	40.1437
431.914	45.857	40.0663
432.118	45.7044	39.9461
432.323	45.8574	40.1986
432.527	45.721	39.9339
432.732	45.8837	40.0647
432.936	45.8495	40.1466
433.14	45.6217	39.9915
433.344	45.8373	40.038
433.549	46.0553	40.2364
433.753	46.2089	40.2322
433.957	45.9461	40.1105
434.161	46.0198	39.9908
434.365	45.9854	40.2582
434.57	46.1211	40.4364
434.774	46.2609	40.0907
434.978	46.4647	40.2734
435.182	46.2684	40.2758
435.386	46.3127	40.2379
435.59	46.1796	40.0825
435.794	46.4169	40.3384
435.998	46.4091	40.2139
436.201	46.2363	40.3107
436.405	46.5562	40.4104
436.609	46.4118	40.389
436.813	46.3534	40.3423
437.017	46.4284	40.3834
437.221	46.4663	40.2415
437.424	46.6695	40.5219
437.628	46.6668	40.5869
437.832	46.7636	40.6064
438.036	46.6265	40.7297
438.239	46.5128	40.6791
438.443	46.8565	40.7009
438.646	46.7893	40.9544
438.85	46.9273	40.9056
439.054	47.0063	40.9995
439.257	47.1593	41.1756
439.461	47.0442	41.1368
439.664	47.2554	41.1613
439.868	47.2145	41.3946
440.071	47.2803	41.3747
440.274	47.2928	41.5446
440.478	47.2573	41.6163
440.681	47.5992	41.682
440.885	47.6012	41.9361
441.088	47.5682	41.9693
441.291	47.6493	42.0901
441.494	47.7652	42.2238
441.698	47.7928	42.384
441.901	47.8785	42.3975
442.104	47.9443	42.5944
442.307	47.9582	42.732
442.51	48.0424	42.8787
442.713	48.0676	42.8781
442.916	48.2007	43.2398
443.12	48.1647	43.2327
443.323	48.2515	43.3248
443.526	48.4992	43.5603
443.729	48.283	43.6783
443.932	48.4005	43.8138
444.134	48.47	43.7669
444.337	48.5936	44.0734
444.54	48.6213	44.1753
444.743	48.6871	44.1125
444.946	48.6271	44.4096
445.149	48.6178	44.5073
445.352	48.7267	44.5504
445.554	48.8627	44.6635
445.757	48.878	44.7852
445.96	48.7664	44.7674
446.162	48.7785	45.0044
446.365	48.7606	44.9179
446.568	48.9167	45.1199
446.77	49.1542	45.2358
446.973	48.9483	45.2781
447.175	48.8559	45.3132
447.378	49.0174	45.4306
447.58	48.9761	45.4048
447.783	49.0932	45.5784
447.985	48.8914	45.3539
448.188	49.2429	45.8926
448.39	48.8371	45.6451
448.593	48.9565	45.4613
448.795	48.8413	45.4477
448.997	48.9566	45.4691
449.2	48.9756	45.4098
449.402	48.907	45.38
449.604	48.836	45.4569
449.806	48.8883	45.4273
450.009	48.6724	45.2264
450.211	48.7966	45.3031
450.413	48.7365	45.2922
450.615	48.8323	45.4736
450.817	48.7373	45.2497
451.019	48.5274	45.0721
451.221	48.8471	44.8833
451.423	48.69	44.968
451.625	48.6213	44.8841
451.827	48.6075	44.8958
452.029	48.5527	44.7383
452.231	48.5521	44.7177
452.433	48.4032	44.7855
452.635	48.7082	44.5795
452.837	48.2091	44.4077
453.039	48.4688	44.6351
453.24	48.3846	44.5699
453.442	48.4675	44.2959
453.644	48.3993	44.3955
453.846	48.2409	44.4814
454.047	48.2676	44.3609
454.249	48.3024	44.0962
454.451	48.2475	44.2554
454.652	48.174	44.1725
454.854	48.3278	44.0826
455.056	48.2622	44.1986
455.257	48.0779	44.1236
455.459	48.1064	44.0657
455.66	48.167	43.9068
455.862	47.9151	43.9288
456.063	48.1515	43.9494
456.265	48.1591	43.852
456.466	48.0399	43.9187
456.667	48.1274	43.9288
456.869	48.025	44.1066
457.07	47.9043	43.843
457.271	47.8372	43.9752
457.473	48.0048	44.2495
457.674	48.0166	44.4703
457.875	48.1049	44.0773
458.076	48.0904	44.1525
458.277	48.1033	44.2759
458.479	47.9659	44.0898
458.68	47.8193	44.1608
458.881	47.8941	44.0583
459.082	47.9325	44.5098
459.283	47.9997	44.1557
459.484	47.8409	44.0271
459.685	47.8786	44.2757
459.886	48.0902	44.4066
460.087	47.7338	44.181
460.288	47.6783	44.3957
460.489	47.7526	43.8698
460.69	47.6649	44.2904
460.89	47.66	44.3038
461.091	47.8604	44.2694
461.292	47.7119	44.3313
461.493	47.734	44.1503
461.694	47.7963	44.3142
461.894	47.6523	44.0698
462.095	47.5664	43.9129
462.296	47.6945	44.1001
462.496	47.5795	44.0391
462.697	47.6607	44.1219
462.898	47.4185	43.9228
463.098	47.6499	44.0703
463.299	47.1904	44.0836
463.499	47.4423	44.0104
463.7	47.3647	43.9078
463.9	47.2844	43.7562
464.101	47.2077	43.8388
464.301	46.8194	43.7814
464.501	47.2552	43.9219
464.702	47.0403	43.4883
464.902	46.9416	43.4787
465.103	46.8881	43.4865
465.303	47.0296	43.6007
465.503	46.8385	43.4096
465.703	47.0874	43.606
465.904	46.8964	43.4983
466.104	46.5906	43.1686
466.304	46.7724	43.1809
466.504	46.5786	43.3133
466.704	46.3899	42.968
466.904	46.4895	42.6512
467.104	46.2479	42.6385
467.304	46.1061	42.8326
467.504	46.0979	42.4532
467.704	46.1931	42.628
467.904	46.2791	42.5969
468.104	45.9469	42.3135
468.304	46.0236	42.3723
468.504	45.9755	42.1839
468.704	45.9389	42.0475
468.904	45.8316	41.9603
469.104	45.5449	42.224
469.304	45.9095	41.833
469.503	45.5395	41.7875
469.703	45.6654	41.4908
469.903	45.388	41.7313
470.103	45.5579	41.6923
470.302	45.3485	41.6002
470.502	45.1919	41.6277
470.701	45.1394	41.4416
470.901	44.9694	41.4384
471.101	45.1193	41.6276
471.3	45.082	41.3285
471.5	44.8745	41.12
471.699	45.0412	41.0326
471.899	44.9248	41.1425
472.098	44.6099	40.8413
472.298	44.8891	40.868
472.497	44.5826	40.8742
472.696	44.5328	40.9069
472.896	44.4831	40.8054
473.095	44.3993	40.698
473.294	44.6596	40.8008
473.494	44.0916	40.6374
473.693	44.1448	40.5608
473.892	44.0344	40.6096
474.091	44.0858	40.5204
474.29	44.1022	40.4123
474.49	43.951	40.2863
474.689	43.9628	40.3775
474.888	43.9592	40.0723
475.087	43.7534	40.4133
475.286	43.6183	39.9001
475.485	43.6947	40.0671
475.684	43.8302	40.0474
475.883	43.5702	40.1232
476.082	43.4332	39.5468
476.281	43.3379	39.7358
476.48	43.2096	40.049
476.678	43.1692	39.5929
476.877	43.2708	39.5163
477.076	43.1371	39.3684
477.275	43.1305	39.3625
477.474	42.6526	39.3933
477.672	42.7545	39.0792
477.871	42.4444	39.539
478.07	42.6981	39.4604
478.269	42.5177	39.065
478.467	42.356	39.002
478.666	42.3822	39.0423
478.864	42.463	39.0278
479.063	42.2188	38.708
479.262	42.1481	38.7375
479.46	42.0762	38.5789
479.659	41.9915	38.4885
479.857	41.9647	38.6947
480.055	41.9261	38.509
480.254	41.6571	38.2474
480.452	41.8026	38.1574
480.651	41.4815	38.2193
480.849	41.5396	38.2932
481.047	41.5256	37.969
481.246	41.3929	37.8101
481.444	41.3218	37.9491
481.642	41.135	37.8026
481.84	41.1113	37.7059
482.039	40.9479	37.7365
482.237	40.7755	37.6045
482.435	40.87	37.5273
482.633	40.6347	37.4716
482.831	40.6462	37.3351
483.029	40.3361	37.4255
483.227	40.3908	37.2028
483.425	40.2383	37.2165
483.623	40.1604	37.156
483.821	40.0978	36.9744
484.019	40.0494	37.1103
484.217	39.906	37.0547
484.415	39.992	36.9857
484.613	39.6915	36.8787
484.811	39.8613	36.5415
485.008	39.6673	36.7324
485.206	39.7884	36.6102
485.404	39.3899	36.5721
485.602	39.4543	36.4374
485.799	39.0684	36.1889
485.997	39.2303	36.3594
486.195	39.0972	36.2053
486.392	38.8395	36.0558
486.59	38.8954	35.9678
486.788	38.9239	36.1224
486.985	38.7252	36.034
487.183	38.6185	35.87
487.38	38.6204	35.7396
487.578	38.1595	35.6029
487.775	38.4123	35.726
487.973	38.1961	35.4781
488.17	38.1928	35.545
488.367	38.0712	35.2995
488.565	37.9956	35.4466
488.762	37.9665	35.2354
488.959	37.7476	35.3835
489.157	37.7416	35.2216
489.354	37.7213	34.9456
489.551	37.5828	34.9011
489.749	37.4776	34.9802
489.946	37.4191	34.9303
490.143	37.4123	34.9027
490.34	37.1806	34.7261
490.537	37.0613	34.6428
490.734	36.8634	34.4589
490.931	36.8453	34.5712
491.128	36.791	34.3698
491.325	36.7506	34.305
491.522	36.6479	34.2718
491.719	36.6354	34.2383
491.916	36.1255	34.0761
492.113	36.4497	34.2056
492.31	36.2627	33.987
492.507	36.1112	34.061
492.704	36.2666	33.8575
492.901	35.8749	33.9963
493.097	36.0003	33.8239
493.294	35.9898	33.6885
493.491	35.9526	33.6701
493.688	35.6883	33.6081
493.884	35.5544	33.5885
494.081	35.3546	33.3862
494.278	35.3838	33.6611
494.474	34.9675	33.3372
494.671	34.9762	33.1143
494.867	35.1077	33.1881
495.064	34.8289	33.0855
495.26	34.8482	33.0971
495.457	34.669	32.841
495.653	34.5732	32.8224
495.85	34.3884	32.8193
496.046	34.2748	32.8216
496.243	34.3734	32.6105
496.439	34.3163	32.5319
496.635	34.0855	32.3066
496.832	34.1956	32.432
497.028	34.0608	32.3105
497.224	33.9436	32.313
497.42	33.7493	32.0464
497.617	33.7025	31.9559
497.813	33.4701	32.1073
498.009	33.4774	31.9619
498.205	33.3528	31.9184
498.401	33.3601	31.9443
498.597	33.1689	31.7944
498.793	32.9939	31.573
498.989	32.8714	31.5764
499.185	32.8241	31.3797
499.381	32.781	31.4242
499.577	32.5374	31.4654
499.773	32.4843	31.31
499.969	32.3453	31.4522
500.165	32.3495	31.1322
500.361	32.2447	31.1062
500.557	32.1872	30.9082
500.753	32.0531	30.9479
500.948	31.7695	30.842
501.144	31.7185	30.8469
501.34	31.7463	30.7
501.536	31.5997	30.6154
501.731	31.5714	30.6675
501.927	31.4212	30.5974
502.123	31.2383	30.4078
502.318	31.2107	30.261
502.514	30.9531	30.1176
502.709	31.1187	30.19
502.905	30.9768	29.8637
503.1	30.7979	30.1189
503.296	30.6805	30.0698
503.491	30.6692	29.9055
503.687	30.4035	29.7164
503.882	30.3452	29.6571
504.078	30.4245	29.5757
504.273	30.2849	29.46
504.468	30.1423	29.5527
504.664	30.0396	29.3228
504.859	29.9362	29.4396
505.054	29.87	29.2036
505.249	29.6885	29.1378
505.445	29.703	29.0971
505.64	29.3907	28.9019
505.835	29.49	28.9958
506.03	29.46	28.8706
506.225	29.1409	28.824
506.42	29.1387	28.6177
506.615	28.9242	28.7236
506.81	28.8906	28.5772
507.005	28.9061	28.5487
507.2	28.7627	28.4067
507.395	28.7249	28.4004
507.59	28.386	28.3
507.785	28.4294	28.1464
507.98	28.3417	27.9643
508.175	28.2785	27.9695
508.37	28.1923	27.8858
508.564	28.0747	27.8349
508.759	28.1114	27.9027
508.954	27.7562	27.9093
509.149	27.806	27.598
509.343	27.5012	27.5854
509.538	27.5767	27.4527
509.733	27.5093	27.3933
509.927	27.34	27.1765
510.122	27.4214	27.3171
510.317	27.1696	27.258
510.511	27.1427	27.0728
510.706	27.0023	26.9884
510.9	26.9842	26.9459
511.095	26.8369	26.8908
511.289	26.7655	26.8441
511.484	26.6222	26.7728
511.678	26.5034	26.7651
511.872	26.3499	26.6283
512.067	26.2935	26.5419
512.261	26.2161	26.4238
512.455	26.1598	26.3306
512.65	26.1473	26.246
512.844	25.915	26.133
513.038	25.9462	26.1934
513.232	25.8307	26.0183
513.427	25.7175	25.9978
513.621	25.6754	25.9152
513.815	25.5171	25.7617
514.009	25.367	25.7365
514.203	25.3655	25.781
514.397	25.2398	25.5061
514.591	25.0509	25.6015
514.785	25.0015	25.5573
514.979	24.9358	25.4016
515.173	24.8478	25.337
515.367	24.7473	25.1861
515.561	24.7407	25.2252
515.755	24.6408	25.1381
515.949	24.47	25.032
516.142	24.5317	25.0139
516.336	24.243	24.7915
516.53	24.3141	24.7995
516.724	24.1657	24.7253
516.917	24.0758	24.6683
517.111	23.9	24.5624
517.305	23.8888	24.6074
517.499	23.7659	24.5407
517.692	23.6768	24.3543
517.886	23.7444	24.4086
518.079	23.537	24.2513
518.273	23.4271	24.2127
518.466	23.3326	24.056
518.66	23.2635	24.0025
518.853	23.1697	23.8358
519.047	23.0793	23.8236
519.24	22.8913	23.8556
519.434	22.9421	23.7469
519.627	22.8934	23.6977
519.82	22.726	23.7488
520.014	22.683	23.4753
520.207	22.418	23.4117
520.4	22.4974	23.3504
520.594	22.405	23.1918
520.787	22.3868	23.1085
520.98	22.2349	23.0903
521.173	22.0781	23.0052
521.366	22.1048	23.0772
521.56	21.8947	22.9369
521.753	21.8765	22.8805
521.946	21.8448	22.8398
522.139	21.7784	22.738
522.332	21.582	22.6966
522.525	21.5423	22.6269
522.718	21.5062	22.5295
522.911	21.4064	22.4678
523.104	21.3509	22.438
523.297	21.3409	22.362
523.489	21.1817	22.2401
523.682	21.1094	22.1496
523.875	21.0217	22.0649
524.068	20.9231	22.0974
524.261	20.7616	22.006
524.453	20.8006	21.9166
524.646	20.6981	21.7785
524.839	20.5075	21.7838
525.031	20.626	21.6613
525.224	20.3732	21.6589
525.417	20.3507	21.5464
525.609	20.2023	21.4148
525.802	20.1496	21.3021
525.995	20.1602	21.3697
526.187	20.0451	21.2582
526.38	19.9262	21.2708
526.572	19.9263	21.2146
526.765	19.791	21.0129
526.957	19.6916	21.038
527.149	19.6557	21.0317
527.342	19.4886	20.9296
527.534	19.4068	20.8337
527.726	19.4223	20.7186
527.919	19.3036	20.6051
528.111	19.2959	20.5757
528.303	19.1445	20.4566
528.495	19.0325	20.4902
528.688	18.981	20.4512
528.88	18.8963	20.3472
529.072	18.8255	20.2159
529.264	18.8687	20.14
529.456	18.6426	20.1687
529.648	18.6612	20.0636
529.84	18.5435	20.0634
530.032	18.4471	19.9253
530.224	18.31	19.9248
530.416	18.3008	19.766
530.608	18.1799	19.7436
530.8	18.1263	19.6104
530.992	18.1792	19.6029
531.184	17.9944	19.5135
531.376	17.909	19.5178
531.568	17.8612	19.38
531.759	17.7595	19.3742
531.951	17.7019	19.248
532.143	17.7013	19.1813
532.335	17.6187	19.2064
532.526	17.4109	19.1424
532.718	17.4033	19.0003
532.91	17.3448	19.089
533.101	17.2911	18.8689
533.293	17.2768	18.8875
533.484	17.2109	18.8332
533.676	17.085	18.7929
533.868	17.0087	18.6667
534.059	16.8947	18.6306
534.251	16.8763	18.5545
534.442	16.723	18.5863
534.633	16.7739	18.4256
534.825	16.7684	18.3786
535.016	16.7169	18.3864
535.208	16.489	18.2857
535.399	16.4766	18.2318
535.59	16.3871	18.101
535.781	16.356	18.091
535.973	16.2671	18.0258
536.164	16.1066	17.9734
536.355	16.1708	17.8128
536.546	16.1028	17.7579
536.737	15.9337	17.8347
536.929	15.9011	17.7531
537.12	15.9998	17.7653
537.311	15.8641	17.6175
537.502	15.6364	17.4261
537.693	15.7156	17.3679
537.884	15.5562	17.3929
538.075	15.5021	17.3024
538.266	15.4288	17.3932
538.457	15.3822	17.2544
538.648	15.3249	17.2439
538.838	15.312	17.109
539.029	15.2097	17.2038
539.22	15.2251	17.0313
539.411	15.1138	16.9848
539.602	14.9266	16.8926
539.792	14.9182	16.8348
539.983	14.8819	16.9111
540.174	14.7707	16.8004
540.365	14.841	16.7758
540.555	14.7691	16.7008
540.746	14.6715	16.6554
540.936	14.6139	16.5023
541.127	14.4949	16.4979
541.317	14.4246	16.4269
541.508	14.4426	16.3385
541.698	14.3381	16.3401
541.889	14.3605	16.2803
542.079	14.2734	16.1877
542.27	14.1673	16.1529
542.46	14.1412	16.1265
542.651	14.1219	16.0808
542.841	14.0317	16.0084
543.031	13.9714	15.9223
543.222	13.8175	16.0115
543.412	13.892	15.884
543.602	13.8333	15.8528
543.792	13.7364	15.8181
543.982	13.6397	15.688
544.173	13.6964	15.6564
544.363	13.5321	15.5958
544.553	13.5139	15.5714
544.743	13.4408	15.5776
544.933	13.3949	15.5473
545.123	13.3762	15.4319
545.313	13.3114	15.2982
545.503	13.3148	15.3453
545.693	13.221	15.2471
545.883	13.145	15.2143
546.073	12.9858	15.0726
546.263	12.9566	15.0824
546.453	12.9553	14.9803
546.643	12.9118	14.9773
546.832	12.8559	14.9954
547.022	12.694	14.8629
547.212	12.7823	14.8632
547.402	12.6967	14.8304
547.591	12.5997	14.6579
547.781	12.5639	14.6064
547.971	12.5246	14.727
548.16	12.5222	14.634
548.35	12.43	14.567
548.54	12.3288	14.516
548.729	12.3116	14.4413
548.919	12.2653	14.4898
549.108	12.2855	14.3836
549.298	12.2027	14.3988
549.487	12.1516	14.2017
549.677	12.0622	14.1592
549.866	12.0315	14.1133
550.055	12.0211	14.157
550.245	11.8839	14.1679
550.434	11.8931	14.0557
550.623	11.8224	14.038
550.813	11.8413	13.9704
551.002	11.7811	13.9595
551.191	11.7048	13.8908
551.381	11.6659	13.8556
551.57	11.5707	13.802
551.759	11.5967	13.7095
551.948	11.5519	13.7115
552.137	11.4689	13.6602
552.326	11.5204	13.6081
552.515	11.4016	13.6068
552.704	11.3231	13.6337
552.893	11.3038	13.6307
553.082	11.2491	13.4604
553.271	11.2178	13.4553
553.46	11.1541	13.4428
553.649	11.1679	13.2575
553.838	11.1292	13.3617
554.027	11.0641	13.3653
554.216	11.0097	13.2628
554.405	10.9678	13.2488
554.593	10.9321	13.1692
554.782	10.902	13.0806
554.971	10.8549	13.0761
555.16	10.8426	13.0817
555.348	10.8248	13.0828
555.537	10.7434	13.0133
555.726	10.6792	13.0189
555.914	10.6736	12.8963
556.103	10.6083	12.8244
556.291	10.693	12.8546
556.48	10.5916	12.7793
556.668	10.531	12.7671
556.857	10.4228	12.6694
557.045	10.4664	12.6581
557.234	10.4288	12.6661
557.422	10.4109	12.6392
557.611	10.3794	12.6121
557.799	10.3073	12.6067
557.987	10.2352	12.5702
558.176	10.2279	12.4379
558.364	10.2259	12.5464
558.552	10.1647	12.4294
558.74	10.1563	12.4253
558.929	10.1387	12.3715
559.117	10.1086	12.3112
559.305	10.0535	12.2555
559.493	9.9177	12.3254
559.681	9.91052	12.2345
559.869	9.93676	12.1946
560.057	9.82532	12.1633
560.245	9.85523	12.1299
560.433	9.85283	12.0628
560.621	9.77248	12.0443
560.809	9.85166	12.0163
560.997	9.69596	12.0419
561.185	9.70218	11.999
561.373	9.72152	11.9485
561.561	9.55303	11.7924
561.749	9.60681	11.8828
561.937	9.60588	11.7653
562.124	9.56992	11.7951
562.312	9.57529	11.8194
562.5	9.49457	11.7018
562.688	9.42702	11.7199
562.875	9.48252	11.7084
563.063	9.38246	11.6574
563.251	9.36257	11.5577
563.438	9.35018	11.6296
563.626	9.29409	11.4949
563.813	9.3347	11.5328
564.001	9.20647	11.5726
564.188	9.2931	11.4775
564.376	9.13181	11.5356
564.563	9.10482	11.4071
564.751	9.18614	11.4345
564.938	9.14432	11.401
565.126	9.10545	11.3377
565.313	9.09994	11.2914
565.5	9.08066	11.3081
565.688	9.01771	11.296
565.875	9.00904	11.2321
566.062	9.02521	11.2598
566.249	8.90295	11.1589
566.437	8.92787	11.2056
566.624	8.93194	11.1135
566.811	8.88215	11.1036
566.998	8.95158	11.1426
567.185	8.87218	11.0235
567.372	8.79378	11.0876
567.559	8.80406	10.9652
567.746	8.80756	10.9469
567.933	8.7447	11.062
568.12	8.72312	10.9568
568.307	8.71585	10.9119
568.494	8.69821	11.0079
568.681	8.64522	10.8662
568.868	8.60668	10.8653
569.055	8.63645	10.8265
569.242	8.59321	10.793
569.429	8.54146	10.777
569.615	8.57232	10.8143
569.802	8.5274	10.7203
569.989	8.49442	10.7464
570.176	8.44641	10.6425
570.362	8.4535	10.6846
570.549	8.4059	10.5888
570.736	8.42209	10.6674
570.922	8.43266	10.5537
571.109	8.37051	10.485
571.295	8.35411	10.5401
571.482	8.31662	10.5479
571.668	8.27279	10.4673
571.855	8.30239	10.4757
572.041	8.24733	10.5168
572.228	8.27471	10.5176
572.414	8.16554	10.4317
572.601	8.21311	10.4308
572.787	8.22333	10.4206
572.973	8.1683	10.4369
573.16	8.13012	10.3259
573.346	8.12939	10.321
573.532	8.10174	10.2611
573.718	8.06565	10.2965
573.905	8.08528	10.2856
574.091	8.01787	10.2446
574.277	7.99103	10.1621
574.463	8.04469	10.1222
574.649	7.98951	10.1448
574.835	7.98042	10.1547
575.021	7.96335	10.1127
575.207	7.89807	10.0503
575.393	7.93087	10.0357
575.579	7.89889	10.0898
575.765	7.91101	10.0353
575.951	7.97745	10.0832
576.137	7.87193	9.98918
576.323	7.83567	10.0275
576.509	7.82844	9.93232
576.695	7.80223	9.9298
576.88	7.78688	9.98024
577.066	7.79094	9.98032
577.252	7.72328	9.83105
577.438	7.75887	9.90377
577.623	7.71722	9.82517
577.809	7.70923	9.81327
577.995	7.78126	9.82714
578.18	7.68555	9.76584
578.366	7.63807	9.73821
578.552	7.63152	9.75977
578.737	7.67079	9.74601
578.923	7.61604	9.72256
579.108	7.62588	9.6723
579.294	7.60616	9.72613
579.479	7.58865	9.67127
579.665	7.59546	9.66415
579.85	7.60544	9.65176
580.035	7.61294	9.67687
580.221	7.53678	9.57229
580.406	7.55354	9.56226
580.591	7.50286	9.58713
580.777	7.5021	9.55675
580.962	7.46892	9.57776
581.147	7.45788	9.55414
581.332	7.41542	9.51909
581.517	7.41524	9.47984
581.703	7.44569	9.52062
581.888	7.43945	9.47184
582.073	7.35599	9.46064
582.258	7.43247	9.48183
582.443	7.36174	9.41387
582.628	7.32812	9.30441
582.813	7.34097	9.32666
582.998	7.31717	9.32773
583.183	7.35915	9.33074
583.368	7.24869	9.25675
583.553	7.33627	9.2782
583.738	7.28014	9.34311
583.923	7.20556	9.28003
584.107	7.2687	9.25772
584.292	7.25526	9.30018
584.477	7.19501	9.25483
584.662	7.18614	9.22944
584.846	7.18519	9.20186
585.031	7.18158	9.11034
585.216	7.19952	9.29541
585.4	7.09152	9.15921
585.585	7.07433	9.23344
585.77	7.19534	9.12484
585.954	7.14536	9.09892
586.139	7.11604	9.0706
586.323	7.14794	9.05941
586.508	7.15663	9.07147
586.692	7.02626	9.02144
586.877	7.06445	9.07813
587.061	7.05981	9.00702
587.246	7.00695	8.99206
587.43	7.02043	8.97703
587.614	6.98355	8.98506
587.799	7.00695	9.01065
587.983	6.99556	8.96224
588.167	6.98304	8.94722
588.351	6.94431	8.88738
588.536	6.96842	8.84371
588.72	6.91171	8.88462
588.904	6.94969	8.96939
589.088	6.91528	8.93372
589.272	6.94666	8.88002
589.456	6.83283	8.77575
589.641	6.87824	8.80947
589.825	6.90289	8.81175
590.009	6.89517	8.81356
590.193	6.82559	8.75572
590.377	6.89359	8.7522
590.561	6.8342	8.77128
590.745	6.77535	8.7351
590.928	6.81609	8.73337
591.112	6.7567	8.72064
591.296	6.80263	8.73544
591.48	6.78129	8.73452
591.664	6.77469	8.66489
591.848	6.76111	8.6619
592.031	6.72161	8.66775
592.215	6.75706	8.617
592.399	6.76337	8.59275
592.582	6.67028	8.60325
592.766	6.66287	8.60714
592.95	6.70243	8.57903
593.133	6.62296	8.55628
593.317	6.7039	8.57026
593.5	6.65976	8.49729
593.684	6.67375	8.6541
593.867	6.56438	8.50027
594.051	6.62789	8.49441
594.234	6.61807	8.48775
594.418	6.57865	8.4582
594.601	6.59023	8.4334
594.785	6.55887	8.45035
594.968	6.57644	8.4895
595.151	6.60844	8.46952
595.334	6.55542	8.40694
595.518	6.51182	8.36081
595.701	6.52518	8.37027
595.884	6.48532	8.37089
596.067	6.46625	8.30329
596.251	6.4609	8.32081
596.434	6.44661	8.35117
596.617	6.42318	8.3097
596.8	6.40411	8.27478
596.983	6.44436	8.36683
597.166	6.35788	8.29647
597.349	6.44101	8.30068
597.532	6.36568	8.23362
597.715	6.38203	8.26996
597.898	6.37717	8.24936
598.081	6.39846	8.15772
598.264	6.32155	8.27106
598.447	6.38177	8.20688
598.63	6.30059	8.20853
598.812	6.34126	8.23948
598.995	6.28352	8.14673
599.178	6.28201	8.1217
599.361	6.29618	8.14173
599.543	6.27353	8.11296
599.726	6.26314	8.08717
599.909	6.26599	8.09925
600.091	6.22065	8.12645
600.274	6.18684	8.07327
600.457	6.25872	8.06773
600.639	6.23538	8.11653
600.822	6.19372	8.06077
601.004	6.27726	8.08351
601.187	6.20314	8.05989
601.369	6.15693	7.96571
601.552	6.2121	7.96013
601.734	6.15468	7.98263
601.917	6.16243	7.97595
602.099	6.19107	7.96955
602.281	6.15605	7.97003
602.464	6.13374	7.95904
602.646	6.09226	7.95675
602.828	6.12492	7.92682
603.01	6.10642	7.91173
603.193	6.11952	7.89666
603.375	6.14624	7.90196
603.557	6.01294	7.90104
603.739	6.03905	7.83533
603.921	6.09768	7.84115
604.103	6.05411	7.84531
604.285	6.03104	7.841
604.467	6.01037	7.8107
604.65	6.00587	7.87177
604.832	6.04646	7.80625
605.013	5.9897	7.7804
605.195	5.93771	7.77227
605.377	6.01364	7.83311
605.559	5.9962	7.82023
605.741	5.93861	7.8189
605.923	5.92582	7.74451
606.105	5.94445	7.72755
606.287	5.92934	7.74864
606.468	5.94595	7.79515
606.65	5.89988	7.71593
606.832	5.8741	7.68282
607.013	5.88427	7.68161
607.195	5.89392	7.70582
607.377	5.90259	7.67341
607.558	5.89799	7.70992
607.74	5.89325	7.6833
607.922	5.86067	7.7085
608.103	5.88295	7.66795
608.285	5.91856	7.65063
608.466	5.80544	7.6036
608.648	5.83374	7.65807
608.829	5.81427	7.6122
609.01	5.81144	7.5655
609.192	5.79449	7.59915
609.373	5.81686	7.61735
609.555	5.74773	7.60661
609.736	5.79604	7.61187
609.917	5.83254	7.59952
610.099	5.7598	7.58473
610.28	5.78325	7.59861
610.461	5.74532	7.66337
610.642	5.7672	7.64002
610.823	5.82697	7.63078
611.004	5.74849	7.59457
611.186	5.75547	7.50563
611.367	5.75873	7.52284
611.548	5.78613	7.55163
611.729	5.71251	7.48273
611.91	5.74988	7.4914
612.091	5.71991	7.54094
612.272	5.71312	7.4948
612.453	5.70403	7.46335
612.634	5.69376	7.49178
612.815	5.69805	7.46211
612.995	5.68578	7.4825
613.176	5.71761	7.44846
613.357	5.64392	7.4743
613.538	5.61526	7.46919
613.719	5.69013	7.42779
613.899	5.6858	7.47878
614.08	5.66017	7.47578
614.261	5.64926	7.38969
614.441	5.71762	7.46578
614.622	5.71651	7.45931
614.803	5.6763	7.43533
614.983	5.67382	7.36446
615.164	5.71124	7.43596
615.344	5.70718	7.45504
615.525	5.6469	7.42835
615.705	5.63087	7.49206
615.886	5.65967	7.42535
616.066	5.61684	7.42442
616.247	5.63465	7.42497
616.427	5.63031	7.36772
616.607	5.64407	7.41398
616.788	5.61953	7.3335
616.968	5.63571	7.38852
617.148	5.62827	7.39215
617.329	5.62635	7.41555
617.509	5.6455	7.37385
617.689	5.64689	7.42305
617.869	5.64482	7.41543
618.049	5.61748	7.37956
618.23	5.65811	7.39034
618.41	5.64455	7.37572
618.59	5.62004	7.38105
618.77	5.57197	7.42425
618.95	5.68923	7.32344
619.13	5.61265	7.38941
619.31	5.6133	7.38571
619.49	5.60204	7.37558
619.67	5.64869	7.39903
619.85	5.64646	7.39542
620.03	5.65707	7.38573
620.209	5.60957	7.42962
620.389	5.66728	7.38179
620.569	5.69258	7.44426
620.749	5.69057	7.37614
620.929	5.68569	7.42982
621.108	5.64393	7.42859
621.288	5.68646	7.4868
621.468	5.67607	7.45305
621.647	5.69834	7.48812
621.827	5.72148	7.43876
622.007	5.71458	7.49188
622.186	5.71049	7.41865
622.366	5.717	7.48609
622.545	5.74992	7.46853
622.725	5.74951	7.47377
622.904	5.74611	7.4267
623.084	5.7196	7.48058
623.263	5.81036	7.52061
623.443	5.69828	7.48995
623.622	5.72868	7.48145
623.802	5.83253	7.50545
623.981	5.80685	7.5146
624.16	5.78099	7.54012
624.339	5.81137	7.46933
624.519	5.84259	7.5557
624.698	5.82354	7.53494
624.877	5.87248	7.59592
625.056	5.81754	7.57966
625.235	5.84617	7.54325
625.415	5.8709	7.55969
625.594	5.84667	7.55577
625.773	5.9023	7.6421
625.952	5.88025	7.64166
626.131	5.89078	7.54417
626.31	5.93137	7.64387
626.489	5.9669	7.63564
626.668	5.97028	7.68111
626.847	5.91119	7.64206
627.026	6.00767	7.69885
627.205	5.97847	7.69536
627.383	5.98887	7.72695
627.562	6.05914	7.74639
627.741	6.07603	7.65523
627.92	6.0334	7.71259
628.099	6.05667	7.82431
628.277	6.10687	7.83467
628.456	6.10033	7.81446
628.635	6.10201	7.82364
628.813	6.15566	7.83849
628.992	6.15922	7.8528
629.171	6.18184	7.82518
629.349	6.17211	7.89578
629.528	6.23038	7.87971
629.706	6.29908	7.97098
629.885	6.23597	7.94073
630.063	6.23341	7.9441
630.242	6.25281	7.90578
630.42	6.32234	8.0366
630.599	6.32136	8.15271
630.777	6.41507	8.01996
630.955	6.40786	8.02974
631.134	6.41337	8.0345
631.312	6.41557	8.07943
631.49	6.42084	8.08522
631.669	6.52468	8.15686
631.847	6.53268	8.16879
632.025	6.47372	8.19433
632.203	6.5236	8.18725
632.381	6.60223	8.20913
632.56	6.52046	8.21802
632.738	6.5606	8.22701
632.916	6.60427	8.28857
633.094	6.70734	8.3043
633.272	6.73486	8.276
633.45	6.74276	8.32441
633.628	6.71318	8.32949
633.806	6.76255	8.38629
633.984	6.86603	8.41824
634.162	6.78918	8.44685
634.339	6.89241	8.42744
634.517	6.89723	8.49917
634.695	6.89922	8.4966
634.873	7.02452	8.59078
635.051	6.97457	8.52916
635.229	6.98135	8.53307
635.406	7.10666	8.60836
635.584	7.07366	8.59977
635.762	7.12486	8.67963
635.939	7.14752	8.68491
636.117	7.20965	8.75293
636.295	7.31108	8.70237
636.472	7.23939	8.80658
636.65	7.27866	8.83225
636.827	7.36562	8.89958
637.005	7.35719	8.92502
637.182	7.35665	8.91418
637.36	7.45507	8.98785
637.537	7.42745	8.96548
637.715	7.60354	9.00653
637.892	7.56797	9.05476
638.069	7.61541	9.07083
638.247	7.70088	9.14987
638.424	7.6268	9.0928
638.601	7.71106	9.25832
638.778	7.74238	9.14354
638.956	7.80126	9.22056
639.133	7.82633	9.30791
639.31	7.97436	9.28754
639.487	7.98045	9.37071
639.664	7.94759	9.36047
639.841	7.97702	9.43662
640.019	8.12531	9.43842
640.196	8.16754	9.46949
640.373	8.18863	9.5048
640.55	8.19499	9.60914
640.727	8.30965	9.5862
640.904	8.31133	9.65431
641.081	8.4031	9.69531
641.257	8.38805	9.69112
641.434	8.5009	9.76533
641.611	8.49955	9.77495
641.788	8.5881	9.78604
641.965	8.5507	9.89745
642.142	8.58938	9.92823
642.318	8.684	9.92718
642.495	8.80335	10.0208
642.672	8.87079	10.023
642.848	8.84031	10.0822
643.025	8.92125	10.1401
643.202	8.9731	10.0943
643.378	9.0296	10.3199
643.555	9.08695	10.363
643.731	9.12221	10.2715
643.908	9.24933	10.3249
644.084	9.29669	10.3698
644.261	9.33727	10.4579
644.437	9.41674	10.4833
644.614	9.36333	10.5664
644.79	9.61887	10.6147
644.967	9.56375	10.5607
645.143	9.58919	10.6548
645.319	9.67797	10.693
645.496	9.71906	10.8246
645.672	9.80484	10.8173
645.848	9.86681	10.8606
646.024	9.90756	10.884
646.201	10.071	11.0694
646.377	10.0496	11.0216
646.553	10.1237	11.0493
646.729	10.2148	11.084
646.905	10.2647	11.2018
647.081	10.3148	11.2057
647.257	10.4229	11.3156
647.433	10.4888	11.2512
647.609	10.5748	11.3727
647.785	10.5543	11.4038
647.961	10.6869	11.4706
648.137	10.838	11.5019
648.313	10.7962	11.66
648.489	10.8701	11.5748
648.665	10.8664	11.6828
648.841	11.1055	11.7631
649.016	11.0931	11.7862
649.192	11.1571	11.8176
649.368	11.372	11.945
649.544	11.3817	12.0058
649.719	11.5185	12.0413
649.895	11.5165	11.9942
650.071	11.5651	12.1738
650.246	11.6161	12.2575
650.422	11.7472	12.2248
650.597	11.7873	12.3099
650.773	11.8827	12.4417
650.949	11.9386	12.4289
651.124	12.0881	12.5278
651.3	12.1586	12.6076
651.475	12.3684	12.6695
651.65	12.2397	12.6843
651.826	12.3275	12.7647
652.001	12.3912	12.7808
652.177	12.512	12.9433
652.352	12.6396	12.9645
652.527	12.737	13.0215
652.702	12.8513	13.0368
652.878	12.8985	13.1689
653.053	13.0619	13.2653
653.228	13.0452	13.2813
653.403	13.2106	13.4108
653.578	13.2795	13.4474
653.754	13.3169	13.4683
653.929	13.4597	13.6361
654.104	13.6553	13.5883
654.279	13.6091	13.7482
654.454	13.6385	13.7996
654.629	13.7914	13.7798
654.804	13.8996	13.8549
654.979	14.0627	13.9822
655.154	14.2	13.9867
655.329	14.1322	14.0895
655.503	14.3417	14.1717
655.678	14.3261	14.2487
655.853	14.4654	14.4256
656.028	14.499	14.3115
656.203	14.7322	14.4954
656.377	14.8571	14.616
656.552	14.7722	14.6552
656.727	14.9209	14.7518
656.902	15.2072	14.7529
657.076	15.2082	14.7456
657.251	15.2846	14.8814
657.425	15.3852	14.9729
657.6	15.5852	15.0535
657.775	15.6772	15.3726
657.949	15.8003	15.3628
658.124	15.8934	15.3664
658.298	15.968	15.3919
658.472	16.1309	15.5076
658.647	16.1423	15.644
658.821	16.3362	15.7109
658.996	16.3137	15.662
659.17	16.4864	15.9194
659.344	16.597	15.9031
659.519	16.7573	15.8833
659.693	16.7681	16.0081
659.867	16.913	16.1303
660.041	17.0371	16.038
660.216	17.298	16.27
660.39	17.3395	16.3526
660.564	17.6669	16.5297
660.738	17.6551	16.6388
660.912	17.6948	16.5836
661.086	17.7659	16.5932
661.26	17.8897	16.8638
661.434	18.1347	16.8123
661.608	18.1309	17.1513
661.782	18.3372	17.0082
661.956	18.4403	17.285
662.13	18.5344	17.3203
662.304	18.6137	17.2563
662.478	18.9289	17.3355
662.652	18.9773	17.449
662.826	19.1086	17.6803
662.999	19.2071	17.763
663.173	19.2098	17.7088
663.347	19.556	17.8247
663.521	19.5677	18.1051
663.694	19.7316	18.0648
663.868	19.8703	18.2643
664.042	20.0058	18.2956
664.215	20.1686	18.4574
664.389	20.325	18.3915
664.562	20.2753	18.454
664.736	20.5031	18.7887
664.909	20.6635	18.8563
665.083	20.9055	18.9324
665.256	20.9406	19.0175
665.43	21.2597	19.149
665.603	21.3263	19.2303
665.777	21.4046	19.3076
665.95	21.4896	19.3744
666.123	21.7345	19.4303
666.297	21.8234	19.6957
666.47	21.9397	19.7793
666.643	22.2283	19.812
666.816	22.3898	20.0166
666.99	22.5364	20.0038
667.163	22.4733	20.1375
667.336	22.698	20.2808
667.509	22.9814	20.4151
667.682	22.8761	20.5073
667.855	23.1027	20.6081
668.029	23.1478	20.6499
668.202	23.4253	20.8905
668.375	23.6145	20.9569
668.548	23.7948	21.1982
668.721	23.809	21.2803
668.893	23.997	21.3421
669.066	24.1736	21.4723
669.239	24.3561	21.4069
669.412	24.366	21.6272
669.585	24.8112	21.7617
669.758	25.026	21.7056
669.931	25.0549	22.0801
670.103	25.2711	22.294
670.276	25.2505	22.2661
670.449	25.4596	22.3249
670.622	25.6334	22.5856
670.794	25.816	22.396
670.967	25.8846	22.6337
671.139	26.2379	22.7173
671.312	26.2008	22.955
671.485	26.5422	23.0377
671.657	26.739	23.1445
671.83	26.7329	23.2318
672.002	26.9007	23.3166
672.175	27.1928	23.4696
672.347	27.2145	23.6289
672.519	27.645	23.794
672.692	27.6989	24.0912
672.864	28.0294	23.9613
673.037	28.1233	24.204
673.209	28.3099	24.2895
673.381	28.5735	24.4878
673.553	28.5243	24.6329
673.726	28.8049	24.7302
673.898	29.0329	24.8324
674.07	29.1906	24.9768
674.242	29.3001	24.9358
674.414	29.545	25.3145
674.587	29.5148	25.3082
674.759	29.7951	25.4484
674.931	30.1273	25.5844
675.103	30.0569	25.5252
675.275	30.2999	25.8974
675.447	30.4318	26.0214
675.619	30.7599	26.2343
675.791	31.1459	26.4335
675.963	31.2164	26.4053
676.134	31.2225	26.4933
676.306	31.5296	26.6608
676.478	31.7867	26.8409
676.65	31.7857	26.8544
676.822	32.0255	27.1141
676.994	32.2993	27.0877
677.165	32.481	27.481
677.337	32.6977	27.6316
677.509	33.0197	27.7931
677.68	33.0255	27.7409
677.852	33.3101	27.8376
678.024	33.33	28.0718
678.195	33.8781	28.2393
678.367	33.7527	28.3731
678.538	33.9881	28.554
678.71	34.4308	28.8398
678.881	34.4742	29.1111
679.053	34.7858	29.0193
679.224	34.9374	29.213
679.396	34.9479	29.3056
679.567	35.2929	29.6629
679.738	35.6252	29.6218
679.91	35.5433	29.7435
680.081	36.0054	29.9444
680.252	36.1259	30.2727
680.424	36.4072	30.3214
680.595	36.6097	30.5778
680.766	36.533	30.6227
680.937	37.2071	30.8121
681.108	37.106	30.8739
681.28	37.2274	31.3845
681.451	37.6678	31.4227
681.622	37.5354	31.3735
681.793	37.8741	31.4889
681.964	38.1972	31.7163
682.135	38.555	32.0356
682.306	38.6678	32.2617
682.477	38.7534	32.2
682.648	39.3401	32.4157
682.819	39.3252	32.4883
682.99	39.6732	32.8035
683.16	39.8822	33.1513
683.331	40.2033	33.201
683.502	40.3115	33.5366
683.673	40.4984	33.6309
683.844	40.7612	33.5624
684.014	40.7813	33.7169
684.185	41.1937	33.951
684.356	41.686	34.3557
684.526	41.6948	34.4646
684.697	41.6707	34.5312
684.868	42.1511	34.7651
685.038	42.3433	35.05
685.209	42.4265	35.1623
685.379	43.0941	34.9835
685.55	43.2179	35.5418
685.72	43.2865	35.6471
685.891	43.5617	35.9388
686.061	43.6192	36.0799
686.232	43.9412	36.057
686.402	44.0913	36.4583
686.572	44.6368	37.1137
686.743	44.6664	36.745
686.913	44.862	36.8841
687.083	45.1403	37.4206
687.254	45.4146	37.3724
687.424	45.9802	37.6634
687.594	46.2634	37.6009
687.764	46.2428	37.7705
687.934	46.3627	38.0886
688.104	46.5907	38.2626
688.275	46.704	38.1903
688.445	47.0556	38.9063
688.615	47.0482	38.6759
688.785	47.7465	39.0851
688.955	47.7783	39.2828
689.125	48.0201	39.3923
689.295	48.1785	39.4409
689.465	48.6812	40.143
689.635	48.7636	39.9544
689.805	49.2117	40.3323
689.974	48.9168	40.122
690.144	49.7964	40.6591
690.314	49.5102	40.8062
690.484	49.9137	40.9481
690.654	50.4851	41.0029
690.823	50.5895	41.431
690.993	50.6139	41.586
691.163	50.8186	41.7221
691.332	51.0444	41.8484
691.502	51.4694	42.2275
691.672	51.5956	42.3301
691.841	51.8593	42.7967
692.011	52.4347	42.9487
692.18	52.7399	43.104
692.35	53.0321	43.1005
692.519	52.8641	43.3233
692.689	53.178	43.667
692.858	53.4679	44.0662
693.027	53.5856	43.8755
693.197	54.0357	44.0994
693.366	54.2158	44.5546
693.536	54.4751	44.7493
693.705	54.8736	44.949
693.874	54.7426	45.1065
694.043	55.2626	45.2954
694.213	55.3443	45.2725
694.382	55.6473	45.3094
694.551	55.9103	45.9371
694.72	56.6327	46.4929
694.889	56.4566	46.4498
695.058	56.703	46.2828
695.228	57.1255	46.8707
695.397	57.2198	47.5792
695.566	57.8627	47.4921
695.735	58.1771	47.7459
695.904	58.3233	47.8587
696.073	58.1769	47.8272
696.242	58.6381	47.8253
696.41	59.1586	48.4459
696.579	59.3998	48.4956
696.748	59.9436	48.2379
696.917	58.967	48.8486
697.086	60.2039	49.4956
697.255	60.0952	49.6001
697.423	60.7452	49.2856
697.592	60.5827	49.9249
697.761	60.9051	49.5661
697.929	61.5435	50.464
698.098	61.6709	50.5643
698.267	61.4127	50.8004
698.435	62.0717	50.5488
698.604	62.1611	51.0768
698.772	62.5602	51.3703
698.941	62.7752	51.6329
699.109	63.0827	51.8706
699.278	63.0131	52.0584
699.446	62.9476	51.7722
699.615	63.8129	52.88
699.783	64.1415	52.7126
699.952	63.701	52.3372
700.12	64.284	52.807
700.288	65.0166	53.4834
700.457	64.6031	53.1982
700.625	65.2697	54.0144
700.793	66.1015	54.1942
700.961	65.375	53.9975
701.13	65.7974	54.037
701.298	66.6138	54.7753
701.466	66.0515	54.2782
701.634	66.3016	54.7562
701.802	67.1747	55.3939
701.97	66.9314	55.5394
702.138	67.2414	55.167
702.306	68.3357	56.2569
702.474	67.7769	56.3016
702.642	68.6856	56.7098
702.81	68.0721	56.5785
702.978	68.4292	56.7032
703.146	69.0681	56.837
703.314	69.2196	56.8704
703.482	69.6303	57.3683
703.65	70.9492	57.8286
703.818	69.7613	57.9826
703.985	70.5814	58.0624
704.153	70.5741	58.1952
704.321	70.2629	58.1989
704.488	71.0004	59.3321
704.656	71.0182	59.0495
704.824	70.6266	58.465
704.991	71.4386	59.4267
705.159	72.5537	60.094
705.327	72.3189	59.3006
705.494	72.5445	59.6725
705.662	72.7681	60.3684
705.829	72.9153	60.6575
705.997	72.3245	60.6937
706.164	73.1719	61.1638
706.332	73.106	61.3833
706.499	74.1999	61.5565
706.666	73.2014	60.6648
706.834	73.7349	61.6135
707.001	74.4238	61.6226
707.168	74.3025	62.5118
707.336	74.9802	62.4242
707.503	75.2054	62.5439
707.67	74.1632	62.0811
707.837	74.7861	62.8915
708.004	75.7242	62.8287
708.172	75.4541	63.0137
708.339	76.4659	64.4617
708.506	75.8675	63.132
708.673	76.4805	63.5531
708.84	77.2535	64.3997
709.007	76.5054	64.5807
709.174	76.9768	64.6657
709.341	76.7343	64.3819
709.508	77.0394	64.737
709.675	77.944	65.4222
709.842	78.1869	65.8241
710.009	78.2681	66.207
710.175	79.0491	66.4688
710.342	78.4036	65.7199
710.509	78.444	65.9917
710.676	79.5369	66.678
710.843	79.9755	66.0782
711.009	79.8294	66.411
711.176	79.4069	66.5922
711.343	79.655	66.955
711.509	79.7069	67.5387
711.676	80.6673	67.9651
711.843	80.3403	67.0603
712.009	81.2413	68.1651
712.176	81.5406	68.148
712.342	81.6555	68.5256
712.509	82.2358	68.7599
712.675	81.4117	68.3286
712.842	82.0076	69.0032
713.008	81.986	69.8101
713.174	82.3737	68.2522
713.341	82.8563	70.1679
713.507	83.1204	69.939
713.673	83.2378	69.8569
713.84	83.1396	70.1092
714.006	82.7071	70.7663
714.172	85.3907	70.0054
714.339	84.2562	70.8173
714.505	83.8158	70.5753
714.671	84.7401	71.48
714.837	83.0219	70.5849
715.003	85.1357	71.6537
715.169	84.4453	70.7996
715.335	85.1848	72.3475
715.501	84.4283	72.5494
715.667	85.8747	73.2422
715.833	84.4405	71.3333
715.999	85.4694	71.7832
716.165	84.5945	72.8374
716.331	85.4869	73.8464
716.497	86.9342	72.7019
716.663	86.1799	72.2944
716.829	85.6951	73.0542
716.995	87.6735	74.274
717.161	87.0933	72.7659
717.326	87.4316	74.4795
717.492	87.0652	72.7491
717.658	86.7524	75.5937
717.823	88.5107	75.3919
717.989	88.439	74.7918
718.155	87.2066	74.5634
718.32	88.4625	75.3921
718.486	88.0078	73.7624
718.651	87.6055	74.2643
718.817	87.7058	74.7253
718.983	88.518	75.2808
719.148	88.105	75.0615
719.314	88.3855	76.4537
719.479	88.4022	75.9527
719.644	89.4911	75.5614
719.81	88.7758	74.9922
719.975	90.1015	76.7982
720.141	91.1857	76.7451
720.306	89.4232	75.6536
720.471	91.2423	75.8825
720.636	90.2578	77.8056
720.802	88.7235	76.3931
720.967	90.5874	78.6464
721.132	89.8556	77.5959
721.297	89.6245	77.2644
721.462	89.739	75.9223
721.628	89.8634	78.1159
721.793	90.3948	77.0753
721.958	89.1998	77.8809
722.123	89.0278	78.0739
722.288	90.3879	78.9845
722.453	93.2882	78.838
722.618	91.6132	79.5739
722.783	91.1024	79.6203
722.948	93.5671	81.388
723.112	91.3806	79.7023
723.277	91.9894	78.7191
723.442	92.1007	79.2521
723.607	92.5884	81.7449
723.772	91.3756	78.7835
723.937	91.9333	79.1789
724.101	91.3364	78.9235
724.266	94.3727	80.5458
724.431	92.2749	79.7373
724.595	92.5289	81.8758
724.76	92.0042	79.3999
724.925	94.4627	79.964
725.089	91.5298	80.8659
725.254	94.6829	81.0978
725.418	92.1475	80.3379
725.583	93.3342	80.2454
725.747	95.7672	82.6753
725.912	95.3944	81.9219
726.076	93.5277	78.9845
726.241	94.7041	82.7591
726.405	94.7134	81.2713
726.57	93.7983	80.6111
726.734	93.2199	81.3511
726.898	94.4877	80.5462
727.062	93.2657	79.1449
727.227	94.8663	83.1159
727.391	95.6963	83.2682
727.555	94.9213	82.6274
727.719	95.7681	83.5881
727.884	95.9333	83.2081
728.048	93.6865	81.006
728.212	96.0203	82.9728
728.376	95.8379	83.1224
728.54	94.7155	82.6963
728.704	95.7362	83.5118
728.868	96.9864	84.8636
729.032	96.597	83.9819
729.196	95.6618	83.1285
729.36	98.2831	86.0669
729.524	98.804	84.9958
729.688	96.4828	82.57
729.852	100.329	87.0326
730.015	98.4078	87.0315
730.179	95.7592	82.2428
730.343	97.4328	83.5252
730.507	98.1088	88.3057
730.671	98.749	83.5462
730.834	99.9912	85.8419
730.998	99.7783	84.9654
731.162	99.3196	88.6411
731.325	99.5788	86.7181
731.489	99.9005	86.2164
731.652	100.527	86.7215
731.816	101.782	88.9735
731.98	101.209	87.179
732.143	100.225	88.4951
732.307	100.084	86.3802
732.47	99.3433	87.3196
732.633	99.4892	88.4057
732.797	100.454	88.1405
732.96	99.8906	85.2673
733.124	102.45	88.96
733.287	101.12	89.554
733.45	98.7825	85.4894
733.614	100.189	88.1376
733.777	101.825	90.6028
733.94	100.509	88.4657
734.103	99.8361	89.4091
734.266	101.669	90.5773
734.43	101.011	88.2519
734.593	103.104	89.3803
734.756	102.689	91.3929
734.919	102.643	90.7053
735.082	103.284	93.2334
735.245	100.743	89.1148
735.408	105.838	90.7214
735.571	103.384	89.4608
735.734	103.244	91.5069
735.897	103.347	89.7062
736.06	104.413	92.7362
736.223	103.821	89.2072
736.386	104.011	90.8714
736.549	106.491	90.6774
736.711	105.05	91.8108
736.874	105.828	90.1347
737.037	101.787	91.3857
737.2	107.569	93.2704
737.362	105.764	95.3656
737.525	103.559	91.8021
737.688	107.995	93.4259
737.85	104.501	93.0985
738.013	105.509	94.2177
738.176	108.705	92.8221
738.338	104.156	91.7719
738.501	107.6	95.5068
738.663	106.594	95.2015
738.826	107.971	92.0909
738.988	110.668	96.7716
739.151	105.637	94.2797
739.313	107.798	90.9385
739.475	110.11	95.1885
739.638	109.356	93.8863
739.8	111.704	95.9383
739.962	109.461	96.2004
740.125	106.073	95.1054
740.287	110.438	97.2015
740.449	109.493	93.8145
740.611	108.228	95.2287
740.774	107.876	94.491
740.936	107.716	96.4052
741.098	110.649	94.5142
741.26	111.637	100.987
741.422	109.229	95.5302
741.584	111.299	99.8934
741.746	111.929	97.9002
741.908	112.331	98.5092
742.07	110.609	96.6746
742.232	111.935	97.4179
742.394	110.873	97.1311
742.556	111.561	98.3209
742.718	113.79	100.237
742.88	110.175	99.1822
743.042	113.546	98.9909
743.203	113.312	103.287
743.365	114.734	98.0793
743.527	110.523	100.317
743.689	110.661	97.514
743.85	112.906	101.605
744.012	114.814	104.379
744.174	110.255	100.709
744.335	113.69	102.072
744.497	112.011	97.8216
744.658	112.111	99.1918
744.82	112.405	101.136
744.982	112.853	97.9332
745.143	115.282	103.186
745.305	111.28	99.3099
745.466	113.313	102.188
745.627	110.591	98.399
745.789	111.908	104.599
745.95	112.392	98.7584
746.112	114.061	101.508
746.273	114.01	100.044
746.434	116.781	100.773
746.596	119.484	105.67
746.757	113.854	103.836
746.918	113.771	103.498
747.079	116.673	102.526
747.24	117.122	104.279
747.402	116.886	100.15
747.563	116.761	101.368
747.724	118.06	107.128
747.885	115.032	102.308
748.046	116.948	104.508
748.207	116.682	103.301
748.368	119.602	104.524
748.529	114.379	102.65
748.69	115.208	102.371
748.851	115.092	102.763
749.012	116.579	102.922
749.173	112.404	98.7821
749.334	114.848	107.364
749.494	119.042	106.276
749.655	116.731	106.412
749.816	116.267	105.164
749.977	119.105	107.839
750.137	116.975	103.406
750.298	118.046	103.731
750.459	117.171	103.696
750.62	116.939	107.517
750.78	118.209	104.303
750.941	120.056	107.637
751.101	118.071	105.854
751.262	116.382	103.46
751.422	119.101	107.73
751.583	119.622	106.575
751.743	119.326	105.753
751.904	122.231	108.95
752.064	116.122	107.746
752.225	124.051	109.882
752.385	121.535	108.036
752.545	120.599	106.668
752.706	120.807	107.634
752.866	120.654	109.422
753.026	117.691	105.645
753.187	120.417	107.383
753.347	118.712	108.209
753.507	123.605	108.856
753.667	120.983	106.526
753.827	123.032	112.014
753.988	115.708	104.452
754.148	123.061	110.809
754.308	124.098	111.549
754.468	120.748	106.757
754.628	126.396	109.767
754.788	120.562	111.215
754.948	124.12	112.155
755.108	125.835	110.879
755.268	120.126	108.157
755.428	125.004	106.359
755.587	121.608	108.765
755.747	123.934	109.801
755.907	130.08	109.972
756.067	128.368	113.816
756.227	121.157	106.709
756.386	122.407	105.462
756.546	124.833	114.913
756.706	123.026	110.514
756.866	125.09	109.443
757.025	126.985	112.149
757.185	122.516	109.856
757.344	133.278	114.124
757.504	126.085	111.248
757.664	124.043	114.884
757.823	122.997	110.326
757.983	132.583	116.944
758.142	126.532	111.337
758.302	120.327	108.543
758.461	121.488	107.798
758.62	121.039	111.634
758.78	124.426	109.144
758.939	128.425	113.699
759.098	125.877	114.932
759.258	122.083	109.108
759.417	126.427	110.996
759.576	123.769	116.568
759.735	127.247	111.489
759.895	123.702	114.065
760.054	127.671	113.269
760.213	121.169	113.282
760.372	128.577	115.867
760.531	124.588	110.047
760.69	124.012	111.626
760.849	122.943	114.484
761.008	128.696	109.827
761.167	129.018	117.138
761.326	124.991	107.108
761.485	127.199	115.053
761.644	133.251	118.232
761.803	129.134	113.341
761.962	127.547	111.536
762.121	127.964	114.589
762.28	129.963	116.77
762.439	127.639	111.931
762.597	125.675	118.486
762.756	120.543	114.072
762.915	126.145	112.055
763.073	127.388	122.224
763.232	125.575	108.412
763.391	128.607	114.826
763.549	126.267	110.529
763.708	127.179	115.406
763.867	130.536	116.633
764.025	135.295	115.186
764.184	0	0
764.342	125.161	119.917
764.501	129.181	114.878
764.659	0	0
764.818	125.331	113.258
764.976	0	0
765.134	127.741	116.755
765.293	0	0
765.451	123.893	110.735
765.609	123.843	114.665
765.768	0	0
765.926	0	0
766.084	0	0
766.242	0	0
766.4	0	0
766.559	0	0
766.717	0	0
766.875	0	0
767.033	0	0
767.191	0	0
767.349	0	0
767.507	0	0
767.665	0	0
767.823	0	0
767.981	0	0
768.139	0	0
768.297	0	0
768.454	0	0
768.612	0	0
768.77	0	0
768.928	0	0
769.086	0	0
769.243	0	0
769.401	0	0
769.559	0	0
769.716	0	0
769.874	0	0
770.031	0	0
770.189	0	0
770.347	0	0
770.504	0	0
770.662	0	0
770.819	0	0
770.977	0	0
771.134	0	0
771.291	0	0
771.449	0	0
771.606	0	0
771.763	0	0
771.921	0	0
772.078	0	0
772.235	0	0
772.393	0	0
772.55	0	0
772.707	0	0
772.864	0	0
773.021	0	0
773.178	0	0
773.335	0	0
773.492	0	0
773.649	0	0
773.806	0	0
773.963	0	0
774.12	0	0
774.277	0	0
774.434	0	0
774.591	0	0
774.748	0	0
774.905	0	0
775.061	0	0
775.218	0	0
775.375	0	0
775.532	0	0
775.688	0	0
775.845	0	0
776.002	0	0
776.158	0	0
776.315	0	0
776.471	0	0
776.628	0	0
776.784	0	0
776.941	0	0
777.097	0	0
777.254	0	0
777.41	0	0
777.567	0	0
777.723	0	0
777.879	0	0
778.036	0	0
778.192	0	0
778.348	0	0
778.505	0	0
778.661	0	0
778.817	0	0
778.973	0	0
779.129	0	0
779.285	0	0
779.442	0	0
779.598	0	0
779.754	0	0
779.91	0	0
780.066	0	0
780.222	0	0
780.378	0	0
780.533	0	0
780.689	0	0
780.845	0	0
781.001	0	0
781.157	0	0
781.313	0	0
781.468	0	0
781.624	0	0
781.78	0	0
781.936	0	0
782.091	0	0
782.247	0	0
782.403	0	0
782.558	0	0
782.714	0	0
782.869	0	0
783.025	0	0
783.18	0	0
783.336	0	0
783.491	0	0
783.647	0	0
783.802	0	0
783.957	0	0
784.113	0	0
784.268	0	0
784.423	0	0
784.578	0	0
784.734	0	0
784.889	0	0
785.044	0	0
785.199	0	0
785.354	0	0
785.51	0	0
785.665	0	0
785.82	0	0
785.975	0	0
786.13	0	0
786.285	0	0
786.44	0	0
786.595	0	0
786.75	0	0
786.905	0	0
787.059	0	0
787.214	0	0
787.369	0	0
787.524	0	0
787.679	0	0
787.833	0	0
787.988	0	0
788.143	0	0
788.297	0	0
788.452	0	0
788.607	0	0
788.761	0	0
788.916	0	0
789.07	0	0
789.225	0	0
789.379	0	0
789.534	0	0
789.688	0	0
789.843	0	0
789.997	0	0
790.151	0	0
790.306	0	0
790.46	0	0
790.614	0	0
790.769	0	0
790.923	0	0
791.077	0	0
791.231	0	0
791.385	0	0
791.54	0	0
791.694	0	0
791.848	0	0
792.002	0	0
792.156	0	0
792.31	0	0
792.464	0	0
792.618	0	0
792.772	0	0
792.926	0	0
793.08	0	0
793.233	0	0
793.387	0	0
793.541	0	0
793.695	0	0
793.849	0	0
794.002	0	0
794.156	0	0
794.31	0	0
794.463	0	0
794.617	0	0
794.771	0	0
794.924	0	0
795.078	0	0
795.231	0	0
795.385	0	0
795.538	0	0
795.692	0	0
795.845	0	0
795.999	0	0
796.152	0	0
796.305	0	0
796.459	0	0
796.612	0	0
796.765	0	0
796.919	0	0
797.072	0	0
797.225	0	0
797.378	0	0
797.531	0	0
797.685	0	0
797.838	0	0
797.991	0	0
798.144	0	0
798.297	0	0
798.45	0	0
798.603	0	0
798.756	0	0
798.909	0	0
799.062	0	0
799.214	0	0
799.367	0	0
799.52	0	0
799.673	0	0
799.826	0	0
799.979	0	0
800.131	0	0
800.284	0	0
800.437	0	0
800.589	0	0
800.742	0	0
800.895	0	0
801.047	0	0
801.2	0	0
801.352	0	0
801.505	0	0
801.657	0	0
801.81	0	0
801.962	0	0
802.115	0	0
802.267	0	0
802.419	0	0
802.572	0	0
802.724	0	0
802.876	0	0
803.028	0	0
803.181	0	0
803.333	0	0
803.485	0	0
803.637	0	0
803.789	0	0
803.941	0	0
804.094	0	0
804.246	0	0
804.398	0	0
804.55	0	0
804.702	0	0
804.854	0	0
805.005	0	0
805.157	0	0
805.309	0	0
805.461	0	0
805.613	0	0
805.765	0	0
805.917	0	0
806.068	0	0
806.22	0	0
806.372	0	0
806.523	0	0
806.675	0	0
806.827	0	0
806.978	0	0
807.13	0	0
807.281	0	0
807.433	0	0
807.584	0	0
807.736	0	0
807.887	0	0
808.039	0	0
808.19	0	0
808.342	0	0
808.493	0	0
808.644	0	0
808.796	0	0
808.947	0	0
809.098	0	0
809.249	0	0
