# Date: Wed Nov 8 14:44:42 2023
# LED: 1
#Wavelength	#Inital reflectance [%]	#Final reflectance [%]
91.0096	0	0
91.2522	0	0
91.4948	0	0
91.7374	0	0
91.98	0	0
92.2226	0	0
92.4651	0	0
92.7076	0	0
92.9501	0	0
93.1925	0	0
93.4349	0	0
93.6773	0	0
93.9197	0	0
94.1621	0	0
94.4044	0	0
94.6467	0	0
94.889	0	0
95.1312	0	0
95.3734	0	0
95.6156	0	0
95.8578	0	0
96.0999	0	0
96.3421	0	0
96.5842	0	0
96.8262	0	0
97.0683	0	0
97.3103	0	0
97.5523	0	0
97.7943	0	0
98.0362	0	0
98.2782	0	0
98.5201	0	0
98.7619	0	0
99.0038	0	0
99.2456	0	0
99.4874	0	0
99.7292	0	0
99.9709	0	0
100.213	0	0
100.454	0	0
100.696	0	0
100.938	0	0
101.179	0	0
101.421	0	0
101.662	0	0
101.904	0	0
102.146	0	0
102.387	0	0
102.629	0	0
102.87	0	0
103.111	0	0
103.353	0	0
103.594	0	0
103.835	0	0
104.077	0	0
104.318	0	0
104.559	0	0
104.801	0	0
105.042	0	0
105.283	0	0
105.524	0	0
105.765	0	0
106.006	0	0
106.248	0	0
106.489	0	0
106.73	0	0
106.971	0	0
107.212	0	0
107.453	0	0
107.694	0	0
107.935	0	0
108.175	0	0
108.416	0	0
108.657	0	0
108.898	0	0
109.139	0	0
109.38	0	0
109.62	0	0
109.861	0	0
110.102	0	0
110.342	0	0
110.583	0	0
110.824	0	0
111.064	0	0
111.305	0	0
111.545	0	0
111.786	0	0
112.026	0	0
112.267	0	0
112.507	0	0
112.748	0	0
112.988	0	0
113.228	0	0
113.469	0	0
113.709	0	0
113.949	0	0
114.19	0	0
114.43	0	0
114.67	0	0
114.91	0	0
115.151	0	0
115.391	0	0
115.631	0	0
115.871	0	0
116.111	0	0
116.351	0	0
116.591	0	0
116.831	0	0
117.071	0	0
117.311	0	0
117.551	0	0
117.791	0	0
118.031	0	0
118.27	0	0
118.51	0	0
118.75	0	0
118.99	0	0
119.23	0	0
119.469	0	0
119.709	0	0
119.949	0	0
120.188	0	0
120.428	0	0
120.667	0	0
120.907	0	0
121.147	0	0
121.386	0	0
121.626	0	0
121.865	0	0
122.104	0	0
122.344	0	0
122.583	0	0
122.823	0	0
123.062	0	0
123.301	0	0
123.541	0	0
123.78	0	0
124.019	0	0
124.258	0	0
124.498	0	0
124.737	0	0
124.976	0	0
125.215	0	0
125.454	0	0
125.693	0	0
125.932	0	0
126.171	0	0
126.41	0	0
126.649	0	0
126.888	0	0
127.127	0	0
127.366	0	0
127.605	0	0
127.844	0	0
128.082	0	0
128.321	0	0
128.56	0	0
128.799	0	0
129.037	0	0
129.276	0	0
129.515	0	0
129.753	0	0
129.992	0	0
130.231	0	0
130.469	0	0
130.708	0	0
130.946	0	0
131.185	0	0
131.423	0	0
131.662	0	0
131.9	0	0
132.138	0	0
132.377	0	0
132.615	0	0
132.853	0	0
133.092	0	0
133.33	0	0
133.568	0	0
133.806	0	0
134.045	0	0
134.283	0	0
134.521	0	0
134.759	0	0
134.997	0	0
135.235	0	0
135.473	0	0
135.711	0	0
135.949	0	0
136.187	0	0
136.425	0	0
136.663	0	0
136.901	0	0
137.139	0	0
137.377	0	0
137.614	0	0
137.852	0	0
138.09	0	0
138.328	0	0
138.565	0	0
138.803	0	0
139.041	0	0
139.278	0	0
139.516	0	0
139.754	0	0
139.991	0	0
140.229	0	0
140.466	0	0
140.704	0	0
140.941	0	0
141.179	0	0
141.416	0	0
141.653	0	0
141.891	0	0
142.128	0	0
142.365	0	0
142.603	0	0
142.84	0	0
143.077	0	0
143.314	0	0
143.552	0	0
143.789	0	0
144.026	0	0
144.263	0	0
144.5	0	0
144.737	0	0
144.974	0	0
145.211	0	0
145.448	0	0
145.685	0	0
145.922	0	0
146.159	0	0
146.396	0	0
146.633	0	0
146.869	0	0
147.106	0	0
147.343	0	0
147.58	0	0
147.817	0	0
148.053	0	0
148.29	0	0
148.527	0	0
148.763	0	0
149	0	0
149.236	0	0
149.473	0	0
149.71	0	0
149.946	0	0
150.182	0	0
150.419	0	0
150.655	0	0
150.892	0	0
151.128	0	0
151.365	0	0
151.601	0	0
151.837	0	0
152.073	0	0
152.31	0	0
152.546	0	0
152.782	0	0
153.018	0	0
153.254	0	0
153.491	0	0
153.727	0	0
153.963	0	0
154.199	0	0
154.435	0	0
154.671	0	0
154.907	0	0
155.143	0	0
155.379	0	0
155.615	0	0
155.851	0	0
156.086	0	0
156.322	0	0
156.558	0	0
156.794	0	0
157.03	0	0
157.265	0	0
157.501	0	0
157.737	0	0
157.972	0	0
158.208	0	0
158.444	0	0
158.679	0	0
158.915	0	0
159.15	0	0
159.386	0	0
159.621	0	0
159.857	0	0
160.092	0	0
160.328	0	0
160.563	0	0
160.798	0	0
161.034	0	0
161.269	0	0
161.504	0	0
161.739	0	0
161.975	0	0
162.21	0	0
162.445	0	0
162.68	0	0
162.915	0	0
163.15	0	0
163.385	0	0
163.621	0	0
163.856	0	0
164.091	0	0
164.326	0	0
164.561	0	0
164.795	0	0
165.03	0	0
165.265	0	0
165.5	0	0
165.735	0	0
165.97	0	0
166.204	0	0
166.439	0	0
166.674	0	0
166.909	0	0
167.143	0	0
167.378	0	0
167.613	0	0
167.847	0	0
168.082	0	0
168.316	0	0
168.551	0	0
168.785	0	0
169.02	0	0
169.254	0	0
169.489	0	0
169.723	0	0
169.958	0	0
170.192	0	0
170.426	0	0
170.66	0	0
170.895	0	0
171.129	0	0
171.363	0	0
171.597	0	0
171.832	0	0
172.066	0	0
172.3	0	0
172.534	0	0
172.768	0	0
173.002	0	0
173.236	0	0
173.47	0	0
173.704	0	0
173.938	0	0
174.172	0	0
174.406	0	0
174.64	0	0
174.874	0	0
175.107	0	0
175.341	0	0
175.575	0	0
175.809	0	0
176.042	0	0
176.276	0	0
176.51	0	0
176.743	0	0
176.977	0	0
177.211	0	0
177.444	0	0
177.678	0	0
177.911	0	0
178.145	0	0
178.378	0	0
178.612	0	0
178.845	0	0
179.079	0	0
179.312	0	0
179.545	0	0
179.779	0	0
180.012	0	0
180.245	0	0
180.478	0	0
180.712	0	0
180.945	0	0
181.178	0	0
181.411	0	0
181.644	0	0
181.877	0	0
182.111	0	0
182.344	0	0
182.577	0	0
182.81	0	0
183.043	0	0
183.275	0	0
183.508	0	0
183.741	0	0
183.974	0	0
184.207	0	0
184.44	0	0
184.673	0	0
184.905	0	0
185.138	0	0
185.371	0	0
185.604	0	0
185.836	0	0
186.069	0	0
186.302	0	0
186.534	0	0
186.767	0	0
186.999	0	0
187.232	0	0
187.464	0	0
187.697	0	0
187.929	0	0
188.162	0	0
188.394	0	0
188.626	0	0
188.859	0	0
189.091	0	0
189.323	0	0
189.556	0	0
189.788	0	0
190.02	0	0
190.252	0	0
190.484	0	0
190.717	0	0
190.949	0	0
191.181	0	0
191.413	0	0
191.645	0	0
191.877	0	0
192.109	0	0
192.341	0	0
192.573	0	0
192.805	0	0
193.037	0	0
193.268	0	0
193.5	0	0
193.732	0	0
193.964	0	0
194.196	0	0
194.427	0	0
194.659	0	0
194.891	0	0
195.123	0	0
195.354	0	0
195.586	0	0
195.817	0	0
196.049	0	0
196.281	0	0
196.512	0	0
196.744	0	0
196.975	0	0
197.206	0	0
197.438	0	0
197.669	0	0
197.901	0	0
198.132	0	0
198.363	0	0
198.595	0	0
198.826	0	0
199.057	0	0
199.288	0	0
199.519	0	0
199.751	0	0
199.982	0	0
200.213	0	0
200.444	0	0
200.675	0	0
200.906	0	0
201.137	0	0
201.368	0	0
201.599	0	0
201.83	0	0
202.061	0	0
202.292	0	0
202.523	0	0
202.754	0	0
202.984	0	0
203.215	0	0
203.446	0	0
203.677	0	0
203.907	0	0
204.138	0	0
204.369	0	0
204.599	0	0
204.83	0	0
205.061	0	0
205.291	0	0
205.522	0	0
205.752	0	0
205.983	0	0
206.213	0	0
206.444	0	0
206.674	0	0
206.904	0	0
207.135	0	0
207.365	0	0
207.595	0	0
207.826	0	0
208.056	0	0
208.286	0	0
208.516	0	0
208.747	0	0
208.977	0	0
209.207	0	0
209.437	0	0
209.667	0	0
209.897	0	0
210.127	0	0
210.357	0	0
210.587	0	0
210.817	0	0
211.047	0	0
211.277	0	0
211.507	0	0
211.737	0	0
211.967	0	0
212.196	0	0
212.426	0	0
212.656	0	0
212.886	0	0
213.115	0	0
213.345	0	0
213.575	0	0
213.804	0	0
214.034	0	0
214.264	0	0
214.493	0	0
214.723	0	0
214.952	0	0
215.182	0	0
215.411	0	0
215.641	0	0
215.87	0	0
216.099	0	0
216.329	0	0
216.558	0	0
216.787	0	0
217.017	0	0
217.246	0	0
217.475	0	0
217.704	0	0
217.934	0	0
218.163	0	0
218.392	0	0
218.621	0	0
218.85	0	0
219.079	0	0
219.308	0	0
219.537	0	0
219.766	0	0
219.995	0	0
220.224	0	0
220.453	0	0
220.682	0	0
220.911	0	0
221.14	0	0
221.368	0	0
221.597	0	0
221.826	0	0
222.055	0	0
222.283	0	0
222.512	0	0
222.741	0	0
222.969	0	0
223.198	0	0
223.426	0	0
223.655	0	0
223.884	0	0
224.112	0	0
224.341	0	0
224.569	0	0
224.797	0	0
225.026	0	0
225.254	0	0
225.483	0	0
225.711	0	0
225.939	0	0
226.168	0	0
226.396	0	0
226.624	0	0
226.852	0	0
227.08	0	0
227.309	0	0
227.537	0	0
227.765	0	0
227.993	0	0
228.221	0	0
228.449	0	0
228.677	0	0
228.905	0	0
229.133	0	0
229.361	0	0
229.589	0	0
229.817	0	0
230.045	0	0
230.272	0	0
230.5	0	0
230.728	0	0
230.956	0	0
231.183	0	0
231.411	0	0
231.639	0	0
231.866	0	0
232.094	0	0
232.322	0	0
232.549	0	0
232.777	0	0
233.004	0	0
233.232	0	0
233.459	0	0
233.687	0	0
233.914	0	0
234.142	0	0
234.369	0	0
234.596	0	0
234.824	0	0
235.051	0	0
235.278	0	0
235.506	0	0
235.733	0	0
235.96	0	0
236.187	0	0
236.414	0	0
236.641	0	0
236.869	0	0
237.096	0	0
237.323	0	0
237.55	0	0
237.777	0	0
238.004	0	0
238.231	0	0
238.458	0	0
238.685	0	0
238.911	0	0
239.138	0	0
239.365	0	0
239.592	0	0
239.819	0	0
240.045	0	0
240.272	0	0
240.499	0	0
240.726	0	0
240.952	0	0
241.179	0	0
241.405	0	0
241.632	0	0
241.859	0	0
242.085	0	0
242.312	0	0
242.538	0	0
242.764	0	0
242.991	0	0
243.217	0	0
243.444	0	0
243.67	0	0
243.896	0	0
244.123	0	0
244.349	0	0
244.575	0	0
244.801	0	0
245.028	0	0
245.254	0	0
245.48	0	0
245.706	0	0
245.932	0	0
246.158	0	0
246.384	0	0
246.61	0	0
246.836	0	0
247.062	0	0
247.288	0	0
247.514	0	0
247.74	0	0
247.966	0	0
248.192	0	0
248.418	0	0
248.643	0	0
248.869	0	0
249.095	0	0
249.321	0	0
249.546	0	0
249.772	0	0
249.998	0	0
250.223	0	0
250.449	0	0
250.675	0	0
250.9	0	0
251.126	0	0
251.351	0	0
251.577	0	0
251.802	0	0
252.027	0	0
252.253	0	0
252.478	0	0
252.704	0	0
252.929	0	0
253.154	0	0
253.379	0	0
253.605	0	0
253.83	0	0
254.055	0	0
254.28	0	0
254.505	0	0
254.731	0	0
254.956	0	0
255.181	0	0
255.406	0	0
255.631	0	0
255.856	0	0
256.081	0	0
256.306	0	0
256.531	0	0
256.756	0	0
256.98	0	0
257.205	0	0
257.43	0	0
257.655	0	0
257.88	0	0
258.104	0	0
258.329	0	0
258.554	0	0
258.779	0	0
259.003	0	0
259.228	0	0
259.452	0	0
259.677	0	0
259.902	0	0
260.126	0	0
260.351	0	0
260.575	0	0
260.799	0	0
261.024	0	0
261.248	0	0
261.473	0	0
261.697	0	0
261.921	0	0
262.146	0	0
262.37	0	0
262.594	0	0
262.818	0	0
263.043	0	0
263.267	0	0
263.491	0	0
263.715	0	0
263.939	0	0
264.163	0	0
264.387	0	0
264.611	0	0
264.835	0	0
265.059	0	0
265.283	0	0
265.507	0	0
265.731	0	0
265.955	0	0
266.179	0	0
266.402	0	0
266.626	0	0
266.85	0	0
267.074	0	0
267.298	0	0
267.521	0	0
267.745	0	0
267.969	0	0
268.192	0	0
268.416	0	0
268.639	0	0
268.863	0	0
269.086	0	0
269.31	0	0
269.533	0	0
269.757	0	0
269.98	0	0
270.204	0	0
270.427	0	0
270.65	0	0
270.874	0	0
271.097	0	0
271.32	0	0
271.543	0	0
271.767	0	0
271.99	0	0
272.213	0	0
272.436	0	0
272.659	0	0
272.882	0	0
273.105	0	0
273.328	0	0
273.551	0	0
273.774	0	0
273.997	0	0
274.22	0	0
274.443	0	0
274.666	0	0
274.889	0	0
275.112	0	0
275.335	0	0
275.557	0	0
275.78	0	0
276.003	0	0
276.226	0	0
276.448	0	0
276.671	0	0
276.894	0	0
277.116	0	0
277.339	0	0
277.561	0	0
277.784	0	0
278.007	0	0
278.229	0	0
278.452	0	0
278.674	0	0
278.896	0	0
279.119	0	0
279.341	0	0
279.563	0	0
279.786	0	0
280.008	0	0
280.23	0	0
280.453	0	0
280.675	0	0
280.897	0	0
281.119	0	0
281.341	0	0
281.563	0	0
281.785	0	0
282.008	0	0
282.23	0	0
282.452	0	0
282.674	0	0
282.896	0	0
283.117	0	0
283.339	0	0
283.561	0	0
283.783	0	0
284.005	0	0
284.227	0	0
284.449	0	0
284.67	0	0
284.892	0	0
285.114	0	0
285.336	0	0
285.557	0	0
285.779	0	0
286	0	0
286.222	0	0
286.444	0	0
286.665	0	0
286.887	0	0
287.108	0	0
287.33	0	0
287.551	0	0
287.772	0	0
287.994	0	0
288.215	0	0
288.437	0	0
288.658	0	0
288.879	0	0
289.1	0	0
289.322	0	0
289.543	0	0
289.764	0	0
289.985	0	0
290.206	0	0
290.427	0	0
290.649	0	0
290.87	0	0
291.091	0	0
291.312	0	0
291.533	0	0
291.754	0	0
291.974	0	0
292.195	0	0
292.416	0	0
292.637	0	0
292.858	0	0
293.079	0	0
293.3	0	0
293.52	0	0
293.741	0	0
293.962	0	0
294.182	0	0
294.403	0	0
294.624	0	0
294.844	0	0
295.065	0	0
295.286	0	0
295.506	0	0
295.727	0	0
295.947	0	0
296.168	0	0
296.388	0	0
296.608	0	0
296.829	0	0
297.049	0	0
297.269	0	0
297.49	0	0
297.71	0	0
297.93	0	0
298.151	0	0
298.371	0	0
298.591	0	0
298.811	0	0
299.031	0	0
299.251	0	0
299.471	0	0
299.691	0	0
299.911	0	0
300.132	0	0
300.352	0	0
300.571	0	0
300.791	0	0
301.011	0	0
301.231	0	0
301.451	0	0
301.671	0	0
301.891	0	0
302.11	0	0
302.33	0	0
302.55	0	0
302.77	0	0
302.989	0	0
303.209	0	0
303.429	0	0
303.648	0	0
303.868	0	0
304.087	0	0
304.307	0	0
304.526	0	0
304.746	0	0
304.965	0	0
305.185	0	0
305.404	0	0
305.624	0	0
305.843	0	0
306.062	0	0
306.282	0	0
306.501	0	0
306.72	0	0
306.939	0	0
307.159	0	0
307.378	0	0
307.597	0	0
307.816	0	0
308.035	0	0
308.254	0	0
308.473	0	0
308.692	0	0
308.911	0	0
309.13	0	0
309.349	0	0
309.568	0	0
309.787	0	0
310.006	0	0
310.225	0	0
310.444	0	0
310.662	0	0
310.881	0	0
311.1	0	0
311.319	0	0
311.537	0	0
311.756	0	0
311.975	0	0
312.193	0	0
312.412	0	0
312.631	0	0
312.849	0	0
313.068	0	0
313.286	0	0
313.505	0	0
313.723	0	0
313.941	0	0
314.16	0	0
314.378	0	0
314.597	0	0
314.815	0	0
315.033	0	0
315.252	0	0
315.47	0	0
315.688	0	0
315.906	0	0
316.124	0	0
316.343	0	0
316.561	0	0
316.779	0	0
316.997	0	0
317.215	0	0
317.433	0	0
317.651	0	0
317.869	0	0
318.087	0	0
318.305	0	0
318.523	0	0
318.741	0	0
318.958	0	0
319.176	0	0
319.394	0	0
319.612	0	0
319.83	0	0
320.047	0	0
320.265	0	0
320.483	0	0
320.7	0	0
320.918	0	0
321.136	0	0
321.353	0	0
321.571	0	0
321.788	0	0
322.006	0	0
322.223	0	0
322.441	0	0
322.658	0	0
322.875	0	0
323.093	0	0
323.31	0	0
323.528	0	0
323.745	0	0
323.962	0	0
324.179	0	0
324.397	0	0
324.614	0	0
324.831	0	0
325.048	0	0
325.265	0	0
325.482	0	0
325.699	0	0
325.916	0	0
326.133	0	0
326.35	0	0
326.567	0	0
326.784	0	0
327.001	0	0
327.218	0	0
327.435	0	0
327.652	0	0
327.869	0	0
328.086	0	0
328.302	0	0
328.519	0	0
328.736	0	0
328.953	0	0
329.169	0	0
329.386	0	0
329.602	0	0
329.819	0	0
330.036	0	0
330.252	0	0
330.469	0	0
330.685	0	0
330.902	0	0
331.118	0	0
331.335	0	0
331.551	0	0
331.767	0	0
331.984	0	0
332.2	0	0
332.416	0	0
332.633	0	0
332.849	0	0
333.065	0	0
333.281	0	0
333.497	0	0
333.714	0	0
333.93	0	0
334.146	0	0
334.362	0	0
334.578	0	0
334.794	0	0
335.01	0	0
335.226	0	0
335.442	0	0
335.658	0	0
335.874	0	0
336.09	0	0
336.305	0	0
336.521	0	0
336.737	0	0
336.953	0	0
337.168	0	0
337.384	0	0
337.6	0	0
337.816	0	0
338.031	0	0
338.247	0	0
338.462	0	0
338.678	0	0
338.894	0	0
339.109	0	0
339.325	0	0
339.54	0	0
339.755	0	0
339.971	0	0
340.186	0	0
340.402	0	0
340.617	0	0
340.832	0	0
341.048	0	0
341.263	0	0
341.478	0	0
341.693	0	0
341.909	0	0
342.124	0	0
342.339	0	0
342.554	0	0
342.769	0	0
342.984	0	0
343.199	0	0
343.414	0	0
343.629	0	0
343.844	0	0
344.059	0	0
344.274	0	0
344.489	0	0
344.704	0	0
344.919	0	0
345.133	0	0
345.348	0	0
345.563	0	0
345.778	0	0
345.992	0	0
346.207	0	0
346.422	0	0
346.636	0	0
346.851	0	0
347.066	0	0
347.28	0	0
347.495	0	0
347.709	0	0
347.924	0	0
348.138	0	0
348.353	0	0
348.567	0	0
348.782	0	0
348.996	0	0
349.21	0	0
349.425	0	0
349.639	0	0
349.853	0	0
350.067	0	0
350.282	0	0
350.496	0	0
350.71	0	0
350.924	0	0
351.138	0	0
351.352	0	0
351.566	0	0
351.78	0	0
351.994	0	0
352.208	0	0
352.422	0	0
352.636	0	0
352.85	0	0
353.064	0	0
353.278	0	0
353.492	0	0
353.706	0	0
353.919	0	0
354.133	0	0
354.347	0	0
354.561	0	0
354.774	0	0
354.988	0	0
355.202	0	0
355.415	0	0
355.629	0	0
355.842	0	0
356.056	0	0
356.269	0	0
356.483	0	0
356.696	0	0
356.91	0	0
357.123	0	0
357.337	0	0
357.55	0	0
357.763	0	0
357.977	0	0
358.19	0	0
358.403	0	0
358.616	0	0
358.83	0	0
359.043	0	0
359.256	0	0
359.469	0	0
359.682	0	0
359.895	0	0
360.108	0	0
360.321	0	0
360.534	0	0
360.747	0	0
360.96	0	0
361.173	0	0
361.386	0	0
361.599	0	0
361.812	0	0
362.025	0	0
362.238	0	0
362.45	0	0
362.663	0	0
362.876	0	0
363.089	0	0
363.301	0	0
363.514	0	0
363.727	0	0
363.939	0	0
364.152	0	0
364.364	0	0
364.577	0	0
364.789	0	0
365.002	0	0
365.214	0	0
365.427	0	0
365.639	0	0
365.852	0	0
366.064	0	0
366.276	0	0
366.489	0	0
366.701	0	0
366.913	0	0
367.125	0	0
367.338	0	0
367.55	0	0
367.762	0	0
367.974	0	0
368.186	0	0
368.398	0	0
368.61	0	0
368.822	0	0
369.034	0	0
369.246	0	0
369.458	0	0
369.67	0	0
369.882	0	0
370.094	0	0
370.306	0	0
370.518	0	0
370.73	0	0
370.941	0	0
371.153	0	0
371.365	0	0
371.577	0	0
371.788	0	0
372	0	0
372.212	0	0
372.423	0	0
372.635	0	0
372.846	0	0
373.058	0	0
373.269	0	0
373.481	0	0
373.692	0	0
373.904	0	0
374.115	0	0
374.327	0	0
374.538	0	0
374.749	0	0
374.961	0	0
375.172	0	0
375.383	0	0
375.594	0	0
375.805	0	0
376.017	0	0
376.228	0	0
376.439	0	0
376.65	0	0
376.861	0	0
377.072	0	0
377.283	0	0
377.494	0	0
377.705	0	0
377.916	0	0
378.127	0	0
378.338	0	0
378.549	0	0
378.76	0	0
378.971	0	0
379.181	0	0
379.392	0	0
379.603	0	0
379.814	0	0
380.024	0	0
380.235	0	0
380.446	0	0
380.656	0	0
380.867	0	0
381.078	0	0
381.288	0	0
381.499	0	0
381.709	0	0
381.92	0	0
382.13	0	0
382.34	0	0
382.551	0	0
382.761	0	0
382.972	0	0
383.182	0	0
383.392	0	0
383.603	0	0
383.813	0	0
384.023	0	0
384.233	0	0
384.443	0	0
384.654	0	0
384.864	0	0
385.074	0	0
385.284	0	0
385.494	0	0
385.704	0	0
385.914	0	0
386.124	0	0
386.334	0	0
386.544	0	0
386.754	0	0
386.964	0	0
387.173	0	0
387.383	0	0
387.593	0	0
387.803	0	0
388.013	0	0
388.222	0	0
388.432	0	0
388.642	0	0
388.851	0	0
389.061	0	0
389.271	0	0
389.48	0	0
389.69	0	0
389.899	0	0
390.109	0	0
390.318	0	0
390.528	0	0
390.737	0	0
390.947	0	0
391.156	0	0
391.365	0	0
391.575	0	0
391.784	0	0
391.993	0	0
392.202	0	0
392.412	0	0
392.621	0	0
392.83	0	0
393.039	0	0
393.248	0	0
393.457	0	0
393.666	0	0
393.876	0	0
394.085	0	0
394.294	0	0
394.503	0	0
394.711	0	0
394.92	0	0
395.129	0	0
395.338	0	0
395.547	0	0
395.756	0	0
395.965	0	0
396.173	0	0
396.382	0	0
396.591	0	0
396.8	0	0
397.008	0	0
397.217	0	0
397.426	0	0
397.634	0	0
397.843	0	0
398.051	0	0
398.26	0	0
398.468	0	0
398.677	0	0
398.885	0	0
399.094	0	0
399.302	0	0
399.51	0	0
399.719	0	0
399.927	0	0
400.135	0	0
400.344	0	0
400.552	0	0
400.76	0	0
400.968	0	0
401.176	0	0
401.385	0	0
401.593	0	0
401.801	0	0
402.009	0	0
402.217	0	0
402.425	0	0
402.633	0	0
402.841	0	0
403.049	0	0
403.257	0	0
403.465	0	0
403.673	0	0
403.88	0	0
404.088	0	0
404.296	0	0
404.504	0	0
404.712	0	0
404.919	0	0
405.127	0	0
405.335	0	0
405.542	0	0
405.75	0	0
405.958	0	0
406.165	0	0
406.373	0	0
406.58	0	0
406.788	0	0
406.995	0	0
407.203	0	0
407.41	0	0
407.617	0	0
407.825	0	0
408.032	39.1364	35.1209
408.239	38.6905	38.4794
408.447	41.3403	37.2456
408.654	42.2698	43.2716
408.861	38.7093	37.6868
409.068	41.9136	40.3365
409.276	40.029	39.0129
409.483	42.997	37.9594
409.69	42.6114	42.5076
409.897	45.7855	41.3153
410.104	42.7844	41.6414
410.311	46.934	43.4246
410.518	43.3657	41.0389
410.725	44.4504	40.186
410.932	43.9724	41.2488
411.139	46.4085	42.793
411.346	44.5566	42.8475
411.553	47.7126	40.7132
411.76	45.8359	43.0255
411.967	44.4862	42.323
412.174	45.367	40.9261
412.381	45.0766	44.0908
412.587	47.1355	43.4555
412.794	47.3141	43.4182
413.001	45.8583	42.8392
413.208	46.6391	43.2269
413.414	47.7284	44.9003
413.621	46.2264	44.0292
413.828	48.3961	44.3148
414.034	48.4598	45.4312
414.241	48.4304	44.6033
414.447	49.6526	44.8867
414.654	48.6672	45.5757
414.86	49.2876	45.7175
415.067	49.8951	45.6688
415.273	49.0464	44.6429
415.48	48.4515	45.1225
415.686	50.3353	45.2658
415.893	50.4319	45.8559
416.099	51.8508	45.8648
416.305	51.6316	47.5577
416.512	51.1696	46.5467
416.718	51.2284	46.6787
416.924	51.4905	47.6142
417.131	52.2162	45.8859
417.337	51.9344	46.7459
417.543	52.1924	47.161
417.749	51.8595	46.7043
417.955	51.7632	46.4491
418.161	52.189	47.6394
418.367	52.5101	47.9681
418.574	52.3904	47.9637
418.78	52.4067	47.9563
418.986	52.482	48.1777
419.192	52.5669	48.7431
419.398	53.5125	47.3762
419.604	53.1181	48.0515
419.809	53.0835	48.3679
420.015	53.2645	47.7846
420.221	54.1679	48.3505
420.427	53.334	48.1578
420.633	53.6472	47.9627
420.839	53.5861	48.9016
421.044	54.371	49.2375
421.25	53.2743	48.1453
421.456	54.3369	49.354
421.662	54.2401	48.5582
421.867	54.4884	49.1675
422.073	54.7635	48.7783
422.278	54.4379	49.6646
422.484	55.2642	49.1315
422.69	55.1916	49.4724
422.895	55.0516	48.9741
423.101	55.3825	49.6518
423.306	55.9725	49.3441
423.512	56.0964	49.9756
423.717	55.5034	49.6592
423.922	55.0766	49.3016
424.128	55.9876	49.5658
424.333	55.7421	49.9245
424.539	56.1317	50.1639
424.744	55.964	49.7235
424.949	56.0569	49.5536
425.154	56.7378	50.17
425.36	56.2921	49.947
425.565	56.1692	49.6744
425.77	56.048	50.3521
425.975	56.6937	49.7885
426.18	56.7437	50.0029
426.385	56.4727	49.5808
426.591	56.7972	49.9817
426.796	57.0366	50.2904
427.001	57.5019	50.7098
427.206	57.3985	50.5884
427.411	57.3476	50.2792
427.616	57.1279	50.7754
427.821	57.4013	50.3644
428.026	57.0505	51.1028
428.23	57.4784	50.5838
428.435	57.8934	50.7428
428.64	57.808	50.882
428.845	57.2031	50.582
429.05	57.7003	50.5246
429.254	57.8168	50.8895
429.459	57.663	50.764
429.664	57.7665	50.7904
429.869	57.8158	50.9342
430.073	58.1025	51.2816
430.278	58.187	50.7473
430.483	57.9105	50.9399
430.687	58.2524	51.0396
430.892	58.3325	50.8544
431.096	58.176	50.7899
431.301	58.7775	51.0769
431.505	58.6585	51.1859
431.71	58.5684	51.1915
431.914	58.7288	50.9232
432.118	58.4899	51.028
432.323	58.7396	51.0533
432.527	59.0306	51.1078
432.732	58.7949	51.1977
432.936	58.8636	51.2038
433.14	58.9504	50.9988
433.344	58.8922	51.315
433.549	58.9376	51.2434
433.753	59.0207	51.2331
433.957	59.1874	51.2179
434.161	59.4392	51.6056
434.365	59.2515	51.2566
434.57	59.5521	51.533
434.774	59.0966	51.2546
434.978	59.2829	51.3734
435.182	59.4937	51.4441
435.386	59.7638	51.6865
435.59	59.5074	51.4624
435.794	59.6588	51.5339
435.998	59.6453	51.513
436.201	59.3167	51.3525
436.405	59.7484	51.6205
436.609	59.908	51.4263
436.813	59.9754	51.7
437.017	59.8723	51.8526
437.221	59.8879	51.5381
437.424	59.9273	51.6486
437.628	60.1589	51.8051
437.832	59.8539	51.3957
438.036	59.9219	51.7067
438.239	59.8993	51.6069
438.443	59.9746	51.9011
438.646	59.9408	51.7511
438.85	60.0489	51.6499
439.054	59.797	51.7477
439.257	59.913	51.6762
439.461	60.0843	51.6846
439.664	60.0375	51.6936
439.868	59.8742	51.8979
440.071	60.0191	51.8435
440.274	60.0968	52.0089
440.478	60.2231	52.022
440.681	59.9825	51.8958
440.885	59.8419	51.8775
441.088	59.8386	51.8287
441.291	60.0176	51.8656
441.494	59.7856	52.0253
441.698	59.8632	51.6687
441.901	59.788	52.0304
442.104	59.8012	51.955
442.307	59.7481	51.9364
442.51	59.8457	52.0184
442.713	59.6878	52.1466
442.916	59.5891	51.9461
443.12	59.513	51.9561
443.323	59.484	52.0881
443.526	59.4616	51.93
443.729	59.4275	52.1296
443.932	59.2906	51.9634
444.134	59.1964	51.9627
444.337	59.3189	51.9639
444.54	59.2441	52.191
444.743	59.2029	51.9697
444.946	59.0686	52.1308
445.149	59.0085	52.0867
445.352	58.9829	52.0494
445.554	58.868	52.3021
445.757	58.6311	52.0443
445.96	58.7881	52.0707
446.162	58.8081	51.9655
446.365	58.6495	52.015
446.568	58.5523	52.1063
446.77	58.5733	51.9066
446.973	58.2398	51.8882
447.175	58.2677	51.824
447.378	58.2921	52.0352
447.58	58.3284	51.8546
447.783	58.0866	51.8655
447.985	58.1872	52.0976
448.188	58.229	51.7227
448.39	58.2506	51.8968
448.593	57.9968	51.9588
448.795	57.9946	52.0479
448.997	58.2744	51.8064
449.2	58.2285	52.0397
449.402	58.0931	51.9039
449.604	58.0958	51.8751
449.806	58.1641	52.0133
450.009	57.9552	51.9277
450.211	58.1288	52.1454
450.413	58.0398	51.9814
450.615	58.1475	52.049
450.817	58.1216	51.9454
451.019	58.2432	51.7672
451.221	58.0068	51.8012
451.423	58.2795	51.7326
451.625	58.2675	52.0604
451.827	58.1517	51.8245
452.029	58.256	52.0062
452.231	58.1264	51.7909
452.433	58.3898	51.6404
452.635	58.2161	51.892
452.837	58.2409	51.9538
453.039	58.039	51.7459
453.24	58.569	51.6184
453.442	58.5522	51.984
453.644	58.4255	51.6658
453.846	58.4231	51.4948
454.047	58.3558	51.4745
454.249	58.3954	51.5491
454.451	58.3637	51.6074
454.652	58.4805	51.3685
454.854	58.3725	51.5067
455.056	58.2693	51.3467
455.257	58.4114	51.503
455.459	58.2267	51.5327
455.66	58.1347	51.5001
455.862	58.5114	51.5958
456.063	58.3944	51.6885
456.265	58.268	51.1717
456.466	58.5239	51.3285
456.667	58.2685	51.3502
456.869	58.0415	51.533
457.07	58.1197	51.3792
457.271	58.2332	51.4904
457.473	58.2058	51.5741
457.674	57.9067	51.4733
457.875	58.1169	51.4511
458.076	58.1111	51.3575
458.277	57.9763	51.3359
458.479	58.0815	51.3081
458.68	58.024	51.3633
458.881	57.6099	51.2496
459.082	57.9591	51.4886
459.283	57.7193	50.9816
459.484	57.9298	51.3844
459.685	57.8468	51.4042
459.886	57.7242	50.983
460.087	57.585	51.2705
460.288	57.6564	51.2872
460.489	57.8018	51.2979
460.69	57.4548	50.9691
460.89	57.3797	51.4752
461.091	57.6966	51.3436
461.292	57.4634	51.1968
461.493	57.3289	51.1663
461.694	57.5124	51.2023
461.894	57.2696	51.1917
462.095	57.1132	51.0967
462.296	57.3414	51.1064
462.496	56.8863	50.9798
462.697	56.9728	51.0999
462.898	57.0614	50.8668
463.098	57.1465	50.8317
463.299	57.197	51.1657
463.499	56.7966	50.858
463.7	57.1914	50.8966
463.9	57.1212	50.8982
464.101	56.9873	51.2077
464.301	57.0041	50.8682
464.501	57.2668	50.7683
464.702	57.176	50.8995
464.902	56.8161	50.6766
465.103	57.0802	50.6044
465.303	56.8402	50.7762
465.503	56.9063	50.7121
465.703	56.6943	50.724
465.904	56.7823	50.6433
466.104	56.8641	50.6904
466.304	56.6478	50.7509
466.504	56.8447	50.5833
466.704	56.9083	50.6852
466.904	56.7818	50.6975
467.104	56.3576	50.5764
467.304	56.7283	50.7134
467.504	56.6789	50.62
467.704	56.7262	50.7062
467.904	56.5926	50.2347
468.104	56.6269	50.4641
468.304	56.2434	50.4139
468.504	56.9597	50.2242
468.704	56.4579	50.1904
468.904	56.2189	50.473
469.104	56.3788	50.1881
469.304	56.4742	50.0129
469.503	56.2743	49.8137
469.703	56.2581	50.0549
469.903	56.1501	50.1531
470.103	56.3218	50.304
470.302	56.3756	50.1744
470.502	56.3227	50.0324
470.701	56.2325	50.0307
470.901	55.9002	50.1522
471.101	56.2333	50.1065
471.3	55.8312	49.8582
471.5	55.9599	49.8537
471.699	55.4361	49.8456
471.899	56.0224	49.621
472.098	56.1956	49.8979
472.298	55.9788	49.7591
472.497	55.5526	49.3485
472.696	55.5024	49.6123
472.896	55.71	49.418
473.095	55.2311	49.2351
473.294	55.4561	49.7946
473.494	55.4084	49.4707
473.693	55.3873	49.7436
473.892	54.796	49.2063
474.091	55.1505	49.4591
474.29	54.8936	49.3071
474.49	55.1779	49.4422
474.689	55.0011	49.2348
474.888	54.7471	49.3232
475.087	55.1638	49.1265
475.286	54.7605	48.9364
475.485	54.7283	49.156
475.684	54.6077	49.2511
475.883	54.4761	49.0965
476.082	54.545	49.1887
476.281	54.5726	49.034
476.48	54.6535	49.0622
476.678	54.157	48.6644
476.877	54.3687	48.8916
477.076	53.8878	48.7352
477.275	54.1153	48.7452
477.474	53.8382	48.4696
477.672	53.8372	48.5295
477.871	54.33	48.5742
478.07	53.7318	48.4536
478.269	53.7567	48.2908
478.467	53.7303	48.5887
478.666	53.6796	48.3109
478.864	53.3525	48.2745
479.063	53.6182	47.9949
479.262	53.2919	48.5879
479.46	53.374	48.1714
479.659	53.175	48.1217
479.857	53.2884	47.9749
480.055	53.0706	48.0145
480.254	53.1245	47.6419
480.452	52.9292	48.1578
480.651	52.8041	47.6588
480.849	52.789	47.9217
481.047	52.6974	47.6822
481.246	52.8685	47.834
481.444	52.5854	47.5136
481.642	52.3028	47.5735
481.84	52.2801	47.5848
482.039	52.5059	47.5024
482.237	52.3254	47.5512
482.435	52.2838	47.4459
482.633	52.3223	47.2196
482.831	52.0054	47.1477
483.029	51.7733	47.1213
483.227	51.7314	47.2198
483.425	52.0058	47.1404
483.623	51.6028	46.8135
483.821	51.4081	47.0591
484.019	51.9023	47.0214
484.217	51.2602	46.869
484.415	51.4027	46.8194
484.613	51.5381	46.8931
484.811	51.1668	46.6456
485.008	50.9165	46.9354
485.206	51.0911	46.7373
485.404	50.7433	46.3952
485.602	50.637	46.5712
485.799	50.6133	46.3822
485.997	50.4508	46.6203
486.195	50.5138	46.2675
486.392	50.4671	46.2018
486.59	50.4367	46.2106
486.788	50.2651	46.0086
486.985	50.1816	46.1225
487.183	50.098	46.1229
487.38	49.8396	45.639
487.578	49.8276	45.9059
487.775	49.9452	45.9828
487.973	49.6778	45.8194
488.17	49.5678	45.6822
488.367	49.5106	45.5126
488.565	49.0603	45.4522
488.762	49.3976	45.3336
488.959	48.9986	45.5114
489.157	48.9679	45.4549
489.354	48.9091	45.105
489.551	48.7649	45.3909
489.749	48.7774	45.0307
489.946	48.6821	45.1125
490.143	48.4033	44.9658
490.34	48.4058	45.0888
490.537	48.3028	44.8511
490.734	47.9267	44.7428
490.931	47.9574	44.6908
491.128	47.9754	44.5631
491.325	47.9072	44.5483
491.522	47.738	44.6432
491.719	47.655	44.4508
491.916	47.3824	44.4886
492.113	47.3991	44.26
492.31	47.1711	44.2096
492.507	47.2303	44.3016
492.704	47.1742	44.0406
492.901	46.9063	43.945
493.097	46.9529	43.831
493.294	46.761	43.7477
493.491	46.8098	43.9023
493.688	46.3105	43.662
493.884	46.4517	43.6671
494.081	46.4708	43.4419
494.278	46.2957	43.4417
494.474	45.8666	43.4435
494.671	45.9044	43.3989
494.867	45.7712	43.2987
495.064	45.6952	43.2514
495.26	45.6478	43.1625
495.457	45.6344	43.2112
495.653	45.2565	42.7705
495.85	45.0465	43.0115
496.046	45.1683	42.8113
496.243	44.8611	42.7743
496.439	44.9097	42.8195
496.635	44.8812	42.6171
496.832	44.3763	42.5622
497.028	44.7495	42.6878
497.224	44.3885	42.3745
497.42	44.4895	42.2278
497.617	44.3515	42.2382
497.813	44.1182	42.1948
498.009	43.9688	42.1989
498.205	43.7954	42.1277
498.401	43.8723	42.021
498.597	43.6537	41.8624
498.793	43.4447	41.7169
498.989	43.3874	41.7351
499.185	43.1921	41.6097
499.381	43.3182	41.4045
499.577	43.0041	41.758
499.773	43.0512	41.5115
499.969	42.8004	41.3064
500.165	42.6895	41.3908
500.361	42.5855	41.2437
500.557	42.538	41.0795
500.753	42.2888	41.164
500.948	42.2442	41.0832
501.144	42.4583	40.7739
501.34	41.8727	40.8131
501.536	41.5913	40.7601
501.731	41.6113	40.4886
501.927	41.5763	40.6712
502.123	41.4192	40.6737
502.318	41.3839	40.2968
502.514	41.319	40.2302
502.709	41.0875	40.1978
502.905	41.0875	40.2008
503.1	40.8861	40.227
503.296	40.8433	39.9485
503.491	40.4667	39.8791
503.687	40.525	39.8453
503.882	40.4525	39.7764
504.078	40.1879	39.6175
504.273	40.2007	39.6001
504.468	39.9293	39.5418
504.664	39.7866	39.4122
504.859	39.848	39.3444
505.054	39.6837	39.2319
505.249	39.6639	39.3851
505.445	39.4012	39.1687
505.64	39.3129	39.1094
505.835	39.1201	38.8567
506.03	39.0176	39.0134
506.225	38.9927	38.6609
506.42	38.563	38.6647
506.615	38.6774	38.7859
506.81	38.554	38.582
507.005	38.5912	38.2529
507.2	38.3229	38.3199
507.395	38.1794	38.1671
507.59	38.0259	38.164
507.785	38.1044	38.2075
507.98	37.9231	37.9885
508.175	37.7376	37.9452
508.37	37.708	38.0148
508.564	37.4617	37.9209
508.759	37.2767	37.8578
508.954	37.2368	37.7057
509.149	37.2245	37.4928
509.343	36.9414	37.2964
509.538	36.9053	37.5513
509.733	36.7638	37.2844
509.927	36.6396	37.2623
510.122	36.6095	37.2218
510.317	36.4908	37.0134
510.511	36.3707	37.0369
510.706	36.1915	36.9608
510.9	36.12	36.8281
511.095	35.9927	36.8671
511.289	35.9219	36.5276
511.484	35.6543	36.5812
511.678	35.4791	36.4708
511.872	35.4757	36.4731
512.067	35.4481	36.3335
512.261	35.4483	36.3203
512.455	35.3888	36.2913
512.65	35.1308	36.0495
512.844	35.0229	35.9722
513.038	34.9351	35.9266
513.232	34.7572	35.8819
513.427	34.6973	35.8116
513.621	34.4347	35.7985
513.815	34.4488	35.6017
514.009	34.3436	35.64
514.203	34.2556	35.4712
514.397	34.1296	35.43
514.591	34.0338	35.5462
514.785	33.7216	35.0911
514.979	33.7927	35.1073
515.173	33.4583	35.0945
515.367	33.3949	34.8901
515.561	33.3874	34.7732
515.755	33.3258	34.9932
515.949	33.2325	34.8694
516.142	33.3517	34.5191
516.336	33.0276	34.4441
516.53	33.0345	34.5773
516.724	32.9247	34.6111
516.917	32.6752	34.2842
517.111	32.6048	34.5103
517.305	32.4073	34.0737
517.499	32.303	34.1423
517.692	32.2098	34.1205
517.886	32.2838	33.9409
518.079	32.1701	33.834
518.273	32.0232	33.7667
518.466	31.6884	33.7981
518.66	31.7269	33.7532
518.853	31.5723	33.5927
519.047	31.6063	33.4945
519.24	31.4565	33.5261
519.434	31.2596	33.3035
519.627	31.1941	33.1655
519.82	31.0073	33.1572
520.014	30.912	33.1856
520.207	30.826	33.0937
520.4	30.8514	33.0179
520.594	30.7239	32.9924
520.787	30.4887	32.7612
520.98	30.4113	32.8564
521.173	30.419	32.7304
521.366	30.3584	32.5865
521.56	30.1905	32.4883
521.753	30.0537	32.2783
521.946	29.9157	32.4525
522.139	29.8641	32.19
522.332	29.6934	32.1758
522.525	29.6548	32.0654
522.718	29.4105	32.1056
522.911	29.3796	32.116
523.104	29.3304	31.8187
523.297	29.2603	31.782
523.489	29.095	31.8233
523.682	29.076	31.6773
523.875	28.8649	31.495
524.068	28.8426	31.4995
524.261	28.8085	31.5005
524.453	28.5769	31.3592
524.646	28.6604	31.3756
524.839	28.2923	31.168
525.031	28.5235	31.0764
525.224	28.2032	30.8684
525.417	27.9391	30.965
525.609	28.088	30.85
525.802	27.9281	30.941
525.995	27.9267	30.6533
526.187	27.6921	30.5709
526.38	27.61	30.64
526.572	27.5507	30.4443
526.765	27.2378	30.4088
526.957	27.1965	30.3608
527.149	27.1537	30.1629
527.342	27.0282	30.1246
527.534	27.0589	30.209
527.726	26.9213	30.0786
527.919	26.825	30.0906
528.111	26.6303	29.9201
528.303	26.6117	29.8399
528.495	26.4691	29.7595
528.688	26.4796	29.6631
528.88	26.314	29.6612
529.072	26.1417	29.632
529.264	26.1305	29.5785
529.456	26.0688	29.5746
529.648	25.9409	29.3727
529.84	25.9987	29.3416
530.032	25.7102	29.1722
530.224	25.6685	29.1904
530.416	25.5258	29.0657
530.608	25.3775	29.0083
530.8	25.4856	28.9184
530.992	25.3975	28.8322
531.184	25.1707	28.8108
531.376	25.099	28.644
531.568	24.923	28.6369
531.759	25.0069	28.5509
531.951	24.8833	28.4304
532.143	24.7912	28.3274
532.335	24.6637	28.3277
532.526	24.6935	28.3291
532.718	24.4575	28.226
532.91	24.265	27.9886
533.101	24.2418	28.1575
533.293	24.144	28.0435
533.484	24.188	27.8987
533.676	24.0876	27.7676
533.868	24.0094	27.7751
534.059	23.8562	27.7918
534.251	23.6714	27.6861
534.442	23.6508	27.5826
534.633	23.4925	27.543
534.825	23.2525	27.2712
535.016	23.3679	27.2739
535.208	23.3669	27.2226
535.399	23.2998	27.2259
535.59	23.1689	27.1839
535.781	23.1215	27.1548
535.973	22.9931	27.0242
536.164	22.9301	26.9266
536.355	22.8743	26.9353
536.546	22.8483	26.7672
536.737	22.6445	26.784
536.929	22.5327	26.5797
537.12	22.4403	26.4568
537.311	22.3752	26.4524
537.502	22.3551	26.4121
537.693	22.2165	26.3659
537.884	22.1414	26.223
538.075	22.0134	26.2194
538.266	22.0017	26.1421
538.457	21.8503	26.1687
538.648	21.7494	25.9961
538.838	21.7319	25.8562
539.029	21.5655	25.9759
539.22	21.4757	25.9918
539.411	21.3083	25.7314
539.602	21.2181	25.7453
539.792	21.2966	25.4967
539.983	21.3673	25.5954
540.174	21.0729	25.5789
540.365	20.969	25.4079
540.555	21.049	25.5607
540.746	20.7953	25.4229
540.936	20.6902	25.1684
541.127	20.5794	25.1199
541.317	20.702	25.151
541.508	20.5008	24.9586
541.698	20.3877	25.0662
541.889	20.3997	24.8492
542.079	20.1658	24.871
542.27	20.12	24.8679
542.46	20.0243	24.7659
542.651	20.0457	24.6572
542.841	19.9756	24.5451
543.031	19.941	24.5595
543.222	19.8439	24.5467
543.412	19.7063	24.4312
543.602	19.7501	24.4466
543.792	19.6454	24.2896
543.982	19.6005	24.2342
544.173	19.4891	24.1675
544.363	19.3437	24.006
544.553	19.272	24.0476
544.743	19.1425	24.0354
544.933	19.2028	24.0323
545.123	18.989	23.8087
545.313	18.9907	23.7577
545.503	18.8576	23.6966
545.693	18.9134	23.6187
545.883	18.7878	23.6162
546.073	18.7796	23.5575
546.263	18.6147	23.5164
546.453	18.6802	23.4556
546.643	18.5797	23.4974
546.832	18.3728	23.3133
547.022	18.344	23.2532
547.212	18.2961	23.1311
547.402	18.2038	23.1349
547.591	18.1894	23.0617
547.781	17.9852	22.9972
547.971	17.8827	22.9716
548.16	17.9362	22.9233
548.35	17.8568	22.8259
548.54	17.7877	22.8138
548.729	17.7992	22.7861
548.919	17.7363	22.6548
549.108	17.5127	22.6376
549.298	17.6426	22.5338
549.487	17.5356	22.561
549.677	17.2649	22.4507
549.866	17.3286	22.4859
550.055	17.2719	22.3814
550.245	17.2091	22.3232
550.434	17.0629	22.2549
550.623	17.0149	22.1902
550.813	17.0113	22.125
551.002	16.9627	22.0983
551.191	16.881	22.003
551.381	16.8823	21.9515
551.57	16.7623	21.8581
551.759	16.6697	21.902
551.948	16.6811	21.9072
552.137	16.6749	21.8555
552.326	16.4745	21.6439
552.515	16.4961	21.714
552.704	16.3599	21.546
552.893	16.3628	21.5129
553.082	16.2911	21.55
553.271	16.2869	21.551
553.46	16.1491	21.4567
553.649	16.0278	21.4619
553.838	15.9515	21.2765
554.027	15.9962	21.3367
554.216	15.9657	21.1386
554.405	15.9623	21.1647
554.593	15.7594	21.1301
554.782	15.8104	21.0388
554.971	15.66	21.0279
555.16	15.6096	21.0662
555.348	15.5283	20.999
555.537	15.5822	20.8451
555.726	15.4232	20.8879
555.914	15.4251	20.7747
556.103	15.4183	20.6818
556.291	15.2029	20.69
556.48	15.2614	20.6361
556.668	15.2211	20.4796
556.857	15.0941	20.5153
557.045	15.0732	20.5361
557.234	15.0068	20.3745
557.422	14.9703	20.5
557.611	14.9769	20.2532
557.799	14.9169	20.2533
557.987	14.8157	20.2603
558.176	14.8692	20.2595
558.364	14.7573	20.2477
558.552	14.6785	20.0676
558.74	14.6693	20.1783
558.929	14.6419	20.0805
559.117	14.5973	20.0241
559.305	14.5719	19.9398
559.493	14.4574	19.9721
559.681	14.4561	19.8164
559.869	14.3328	19.7016
560.057	14.3214	19.823
560.245	14.3332	19.8701
560.433	14.1902	19.7127
560.621	14.1555	19.7285
560.809	14.1795	19.5838
560.997	14.1108	19.5354
561.185	14.0406	19.5482
561.373	13.9046	19.5327
561.561	13.8929	19.5015
561.749	13.8884	19.5023
561.937	13.8691	19.4093
562.124	13.8905	19.3095
562.312	13.788	19.3115
562.5	13.7798	19.2489
562.688	13.7235	19.2265
562.875	13.645	19.1604
563.063	13.6495	19.1862
563.251	13.5878	19.0852
563.438	13.5867	19.0518
563.626	13.488	18.9624
563.813	13.4749	19.0165
564.001	13.452	19.0152
564.188	13.406	18.938
564.376	13.4397	18.9285
564.563	13.3231	18.8856
564.751	13.2729	18.8441
564.938	13.1869	18.7674
565.126	13.2117	18.7527
565.313	13.1307	18.7019
565.5	13.1135	18.6054
565.688	13.0558	18.5827
565.875	13.0096	18.6307
566.062	13.0035	18.5822
566.249	13.026	18.5102
566.437	12.983	18.429
566.624	12.8857	18.4306
566.811	12.8255	18.454
566.998	12.808	18.3249
567.185	12.8835	18.404
567.372	12.8534	18.4228
567.559	12.7602	18.2968
567.746	12.7029	18.3287
567.933	12.6001	18.2344
568.12	12.6149	18.1554
568.307	12.576	18.1832
568.494	12.669	18.1241
568.681	12.536	18.1248
568.868	12.4984	18.0826
569.055	12.5487	17.9334
569.242	12.4849	17.928
569.429	12.434	17.9889
569.615	12.4034	17.8487
569.802	12.3132	17.6838
569.989	12.1928	17.8367
570.176	12.1808	17.8398
570.362	12.1818	17.7786
570.549	12.227	17.7277
570.736	12.1796	17.7555
570.922	12.2195	17.697
571.109	12.1921	17.6741
571.295	12.1024	17.6236
571.482	12.0872	17.5341
571.668	12.0241	17.5981
571.855	12.0076	17.5858
572.041	12.0093	17.5538
572.228	11.9691	17.4207
572.414	12.0319	17.4625
572.601	11.8795	17.3969
572.787	11.8579	17.3365
572.973	11.804	17.312
573.16	11.739	17.3198
573.346	11.8238	17.3742
573.532	11.7668	17.1646
573.718	11.7179	17.242
573.905	11.7209	17.1933
574.091	11.5847	17.1545
574.277	11.7043	17.0688
574.463	11.5822	17.0722
574.649	11.5356	17.1068
574.835	11.6368	17.0681
575.021	11.5202	17.0669
575.207	11.5621	17.0742
575.393	11.5108	16.9623
575.579	11.5024	16.9686
575.765	11.5243	16.7785
575.951	11.411	16.8389
576.137	11.4065	16.9375
576.323	11.401	16.8097
576.509	11.4384	16.8454
576.695	11.4191	16.7499
576.88	11.3745	16.6801
577.066	11.2709	16.7183
577.252	11.2661	16.6122
577.438	11.253	16.6747
577.623	11.283	16.6738
577.809	11.1645	16.4734
577.995	11.1518	16.6305
578.18	11.2095	16.5145
578.366	11.1353	16.4595
578.552	11.0771	16.4928
578.737	11.0154	16.3857
578.923	11.0775	16.3897
579.108	11.0162	16.383
579.294	11.0917	16.3612
579.479	10.9095	16.3895
579.665	10.9722	16.3138
579.85	10.9672	16.3621
580.035	10.9232	16.3564
580.221	10.8955	16.3434
580.406	10.8526	16.1498
580.591	10.9761	16.1619
580.777	10.9163	16.1322
580.962	10.8575	16.1144
581.147	10.8093	16.1901
581.332	10.8604	16.0399
581.517	10.7509	16.133
581.703	10.7402	16.0996
581.888	10.6715	15.9857
582.073	10.7662	15.9499
582.258	10.7243	16.0043
582.443	10.6585	16.1206
582.628	10.6585	15.9584
582.813	10.5699	15.951
582.998	10.6629	15.9519
583.183	10.6066	15.9658
583.368	10.6065	15.8995
583.553	10.611	15.8303
583.738	10.6777	15.892
583.923	10.6129	15.7581
584.107	10.4574	15.7754
584.292	10.4855	15.6744
584.477	10.4168	15.6913
584.662	10.4291	15.6422
584.846	10.4515	15.6967
585.031	10.3999	15.6932
585.216	10.3618	15.5294
585.4	10.3526	15.6196
585.585	10.3786	15.5257
585.77	10.2965	15.5998
585.954	10.4232	15.4679
586.139	10.3555	15.3857
586.323	10.3215	15.5364
586.508	10.2001	15.3407
586.692	10.24	15.5512
586.877	10.2653	15.479
587.061	10.2048	15.3887
587.246	10.2721	15.4096
587.43	10.1934	15.295
587.614	10.1314	15.3429
587.799	10.0844	15.2429
587.983	10.1143	15.2908
588.167	10.1502	15.2865
588.351	10.1071	15.2913
588.536	9.9962	15.2171
588.72	10.0482	15.195
588.904	10.1533	15.2882
589.088	9.98574	15.1477
589.272	9.92408	15.185
589.456	9.96943	15.1193
589.641	10.0462	15.0484
589.825	9.93291	15.026
590.009	9.95238	15.0657
590.193	9.97309	15.0411
590.377	9.92457	15.0079
590.561	9.9167	15.0023
590.745	9.82639	14.9655
590.928	9.79962	14.9926
591.112	9.8688	14.9695
591.296	9.77409	14.8668
591.48	9.73669	14.9064
591.664	9.76138	14.7747
591.848	9.76364	14.8547
592.031	9.79124	14.8498
592.215	9.69107	14.7337
592.399	9.8315	14.8445
592.582	9.66758	14.7884
592.766	9.69603	14.7511
592.95	9.64512	14.6474
593.133	9.68484	14.7947
593.317	9.58948	14.644
593.5	9.64635	14.6973
593.684	9.53913	14.6447
593.867	9.57433	14.6297
594.051	9.60709	14.5801
594.234	9.55084	14.5301
594.418	9.49042	14.5406
594.601	9.46852	14.5498
594.785	9.44684	14.4099
594.968	9.50017	14.4057
595.151	9.47058	14.5338
595.334	9.50604	14.4203
595.518	9.41177	14.493
595.701	9.49886	14.4636
595.884	9.35606	14.323
596.067	9.34204	14.3342
596.251	9.41416	14.2933
596.434	9.33143	14.3459
596.617	9.33849	14.3208
596.8	9.35811	14.3123
596.983	9.27204	14.3142
597.166	9.25851	14.281
597.349	9.31625	14.2248
597.532	9.21454	14.1944
597.715	9.22065	14.2345
597.898	9.23573	14.1956
598.081	9.09391	14.1015
598.264	9.19345	14.1346
598.447	9.09316	14.0627
598.63	9.12608	14.1478
598.812	9.14213	14.0866
598.995	9.08442	14.0799
599.178	9.16167	14.0035
599.361	9.09054	14.0026
599.543	9.08325	14.0388
599.726	9.0192	14.0593
599.909	9.08307	13.9998
600.091	9.08145	14.0001
600.274	9.04232	13.9269
600.457	8.98028	13.9619
600.639	9.08037	14.0036
600.822	8.90397	13.8657
601.004	8.95342	13.8517
601.187	8.99943	13.9198
601.369	8.80435	13.8019
601.552	8.92244	13.8203
601.734	8.90287	13.8095
601.917	8.88748	13.8048
602.099	8.76451	13.7947
602.281	8.81882	13.7258
602.464	8.87129	13.7945
602.646	8.8534	13.8159
602.828	8.76295	13.7737
603.01	8.84909	13.74
603.193	8.85325	13.7815
603.375	8.75403	13.6792
603.557	8.74092	13.6068
603.739	8.66811	13.6369
603.921	8.6838	13.5723
604.103	8.65963	13.5549
604.285	8.66168	13.5951
604.467	8.72369	13.6004
604.65	8.62661	13.574
604.832	8.57757	13.5882
605.013	8.59604	13.5628
605.195	8.57184	13.5381
605.377	8.64716	13.4307
605.559	8.61539	13.5002
605.741	8.51755	13.4883
605.923	8.4876	13.4328
606.105	8.52196	13.4706
606.287	8.57528	13.3962
606.468	8.53544	13.4238
606.65	8.50637	13.3885
606.832	8.50932	13.4546
607.013	8.48269	13.4481
607.195	8.48579	13.4272
607.377	8.51639	13.3302
607.558	8.37869	13.3787
607.74	8.41916	13.3154
607.922	8.36275	13.2915
608.103	8.37346	13.326
608.285	8.39201	13.3234
608.466	8.31179	13.2794
608.648	8.39272	13.3056
608.829	8.376	13.2885
609.01	8.38277	13.3201
609.192	8.36332	13.2727
609.373	8.35953	13.2821
609.555	8.29056	13.2296
609.736	8.33729	13.2148
609.917	8.37126	13.2649
610.099	8.27525	13.1835
610.28	8.3084	13.1249
610.461	8.22178	13.1984
610.642	8.26533	13.1147
610.823	8.17299	13.1817
611.004	8.23352	13.1271
611.186	8.30388	13.1337
611.367	8.26194	13.0739
611.548	8.18031	13.1291
611.729	8.1474	13.135
611.91	8.2106	13.1306
612.091	8.16618	13.1086
612.272	8.13031	13.0523
612.453	8.16754	13.1485
612.634	8.1359	13.0889
612.815	8.22978	13.0431
612.995	8.11706	13.1004
613.176	8.14992	13.0182
613.357	8.07831	12.9906
613.538	8.23323	13.0098
613.719	8.11602	12.8889
613.899	8.11261	12.9746
614.08	8.10868	13.007
614.261	8.12343	13.0075
614.441	8.12147	13.0678
614.622	8.11877	13.1148
614.803	8.05704	13.0837
614.983	8.13783	12.8927
615.164	8.11476	13.012
615.344	8.16336	13.0184
615.525	8.0628	12.9084
615.705	8.1495	12.9943
615.886	8.04273	12.8821
616.066	8.03996	13.0084
616.247	8.05833	12.9255
616.427	8.12659	12.9991
616.607	8.02478	12.9064
616.788	8.08198	12.9407
616.968	8.08305	12.9996
617.148	8.03551	12.9045
617.329	8.12593	12.96
617.509	8.0246	12.9237
617.689	8.00128	12.9434
617.869	8.0814	12.8826
618.049	7.98562	12.9104
618.23	8.09376	12.95
618.41	8.04105	12.8619
618.59	8.04846	12.9761
618.77	8.0203	12.8542
618.95	8.14232	12.8642
619.13	8.09918	12.9577
619.31	8.0432	12.8593
619.49	8.08309	12.9395
619.67	8.10685	12.999
619.85	8.09182	12.8675
620.03	8.06927	12.9372
620.209	8.13776	12.9641
620.389	8.07084	13.0053
620.569	8.08926	12.9664
620.749	8.11739	12.9003
620.929	8.18091	12.9426
621.108	8.16091	12.9876
621.288	8.1727	12.8819
621.468	8.18486	12.9667
621.647	8.13229	12.9053
621.827	8.15642	13.0448
622.007	8.1434	13.0202
622.186	8.19065	13.0178
622.366	8.20507	12.9279
622.545	8.09719	13.0466
622.725	8.24746	13.0862
622.904	8.1659	13.0186
623.084	8.19234	13.1062
623.263	8.26683	12.9939
623.443	8.24839	13.0403
623.622	8.1603	13.0622
623.802	8.24535	13.1075
623.981	8.34186	13.1917
624.16	8.30777	13.0988
624.339	8.30291	13.159
624.519	8.28215	13.202
624.698	8.37862	13.2567
624.877	8.32087	13.2035
625.056	8.4439	13.1672
625.235	8.39122	13.1593
625.415	8.4155	13.1734
625.594	8.40753	13.1495
625.773	8.51591	13.2359
625.952	8.5201	13.2718
626.131	8.53172	13.2413
626.31	8.52622	13.2861
626.489	8.58189	13.1978
626.668	8.59528	13.2528
626.847	8.5432	13.2531
627.026	8.6113	13.3362
627.205	8.62359	13.4032
627.383	8.57208	13.2704
627.562	8.65056	13.37
627.741	8.66513	13.3541
627.92	8.72387	13.4282
628.099	8.71136	13.4727
628.277	8.823	13.4825
628.456	8.81784	13.4568
628.635	8.80649	13.5143
628.813	8.7789	13.5473
628.992	8.88614	13.5278
629.171	8.87301	13.6056
629.349	8.88104	13.6749
629.528	8.96169	13.7033
629.706	8.95462	13.6291
629.885	9.01197	13.6408
630.063	9.05445	13.6772
630.242	9.05837	13.6421
630.42	9.15722	13.8023
630.599	9.10314	13.7521
630.777	9.21933	13.7443
630.955	9.22986	13.7151
631.134	9.16498	13.8915
631.312	9.26038	13.9137
631.49	9.33349	13.8786
631.669	9.40861	13.8645
631.847	9.37106	14.0703
632.025	9.43293	13.9173
632.203	9.52816	14.0924
632.381	9.53713	14.01
632.56	9.49105	13.984
632.738	9.66731	14.0833
632.916	9.6593	14.054
633.094	9.67963	14.1053
633.272	9.67436	14.2249
633.45	9.69746	14.0949
633.628	9.85112	14.1724
633.806	9.79211	14.3662
633.984	9.86087	14.3204
634.162	9.92937	14.2921
634.339	9.8836	14.3949
634.517	9.95206	14.4622
634.695	10.0291	14.3968
634.873	10.1247	14.4886
635.051	10.0774	14.4092
635.229	10.1704	14.5104
635.406	10.2959	14.6355
635.584	10.2621	14.666
635.762	10.378	14.688
635.939	10.38	14.7433
636.117	10.4835	14.8005
636.295	10.4651	14.6868
636.472	10.5835	14.8278
636.65	10.6021	14.8969
636.827	10.7343	14.891
637.005	10.6618	14.7896
637.182	10.8397	14.9001
637.36	10.8677	15.0321
637.537	10.9462	15.0902
637.715	10.9022	15.0387
637.892	11.0953	15.1484
638.069	11.1421	15.1925
638.247	11.1224	15.1995
638.424	11.1441	15.2732
638.601	11.3327	15.3035
638.778	11.3347	15.2831
638.956	11.3494	15.3407
639.133	11.5384	15.3969
639.31	11.4611	15.3779
639.487	11.643	15.4276
639.664	11.675	15.5267
639.841	11.6555	15.4562
640.019	11.7714	15.581
640.196	11.8513	15.6006
640.373	11.8647	15.7419
640.55	12.0226	15.7809
640.727	12.0669	15.9357
640.904	12.0969	15.8613
641.081	12.1377	15.8676
641.257	12.2445	15.9984
641.434	12.3585	16.0347
641.611	12.3209	16.0801
641.788	12.5411	16.0748
641.965	12.5377	16.0815
642.142	12.5919	16.2245
642.318	12.7253	16.285
642.495	12.8995	16.358
642.672	12.8636	16.3633
642.848	12.8982	16.403
643.025	13.0589	16.5026
643.202	13.1379	16.5814
643.378	13.2527	16.6003
643.555	13.2417	16.6415
643.731	13.3057	16.663
643.908	13.4256	16.7544
644.084	13.567	16.7757
644.261	13.5916	16.9232
644.437	13.7245	16.9196
644.614	13.6931	16.8808
644.79	13.9346	16.9706
644.967	13.9265	17.1734
645.143	14.0735	17.1882
645.319	14.1383	17.2071
645.496	14.2009	17.175
645.672	14.3721	17.2557
645.848	14.4201	17.3418
646.024	14.4452	17.393
646.201	14.4627	17.4278
646.377	14.6845	17.5877
646.553	14.787	17.5598
646.729	14.8922	17.7381
646.905	14.9371	17.6658
647.081	15.1768	17.7968
647.257	15.175	17.7934
647.433	15.4355	18.044
647.609	15.3305	18.0346
647.785	15.4809	17.8797
647.961	15.4886	18.0765
648.137	15.8015	18.2686
648.313	15.8624	18.2424
648.489	15.9607	18.3177
648.665	15.9551	18.401
648.841	16.0932	18.5042
649.016	16.23	18.6056
649.192	16.3411	18.6498
649.368	16.5105	18.8198
649.544	16.5581	18.7953
649.719	16.6315	18.6797
649.895	16.8636	19.0166
650.071	16.9225	18.9096
650.246	17.0442	19.0173
650.422	17.0654	19.1624
650.597	17.0926	18.9937
650.773	17.3647	19.265
650.949	17.4553	19.4038
651.124	17.4697	19.3382
651.3	17.5147	19.3414
651.475	17.8161	19.4674
651.65	17.8461	19.6702
651.826	18.0007	19.7403
652.001	18.1207	19.6868
652.177	18.2467	19.7728
652.352	18.3343	20.0157
652.527	18.5821	19.9822
652.702	18.5989	20.1158
652.878	18.8105	20.0686
653.053	18.8817	20.2421
653.228	18.9504	20.3015
653.403	19.0927	20.4878
653.578	19.2797	20.4709
653.754	19.3113	20.4737
653.929	19.6332	20.6876
654.104	19.737	20.6738
654.279	19.8646	20.841
654.454	19.9209	20.9831
654.629	19.9417	21.0836
654.804	20.2311	20.9206
654.979	20.3299	21.2151
655.154	20.514	21.147
655.329	20.541	21.219
655.503	20.7538	21.5051
655.678	20.8352	21.4342
655.853	21.1132	21.6636
656.028	21.058	21.6643
656.203	21.3061	21.7712
656.377	21.4057	21.9762
656.552	21.5206	21.8793
656.727	21.7438	22.1148
656.902	21.7577	22.0993
657.076	22.0067	22.1855
657.251	22.1281	22.3538
657.425	22.1509	22.2498
657.6	22.459	22.577
657.775	22.4388	22.5286
657.949	22.8437	22.6217
658.124	22.9002	22.6352
658.298	23.0962	22.8417
658.472	23.1829	22.8273
658.647	23.2042	22.8987
658.821	23.7019	23.0434
658.996	23.4539	23.0164
659.17	23.7607	23.233
659.344	23.8469	23.5297
659.519	24.0794	23.4694
659.693	24.2375	23.5421
659.867	24.3514	23.7611
660.041	24.4601	23.8304
660.216	24.6784	23.9021
660.39	25.0737	23.9025
660.564	25.0184	24.0922
660.738	25.1996	24.1647
660.912	25.2481	24.0972
661.086	25.4612	24.4328
661.26	25.73	24.3609
661.434	25.7374	24.647
661.608	26.1143	24.637
661.782	26.0333	24.8299
661.956	26.2837	24.7732
662.13	26.3421	24.9724
662.304	26.6934	25.0698
662.478	26.7492	25.2255
662.652	26.9776	25.3578
662.826	27.1144	25.3346
662.999	27.3853	25.8393
663.173	27.5495	25.7753
663.347	27.7304	25.6982
663.521	27.9383	25.9102
663.694	27.9903	25.9329
663.868	28.2163	26.1697
664.042	28.4058	26.2074
664.215	28.7045	26.2912
664.389	28.7394	26.32
664.562	29.066	26.5563
664.736	29.1633	26.5997
664.909	29.2887	26.7648
665.083	29.428	26.873
665.256	29.8384	27.003
665.43	29.9067	27.2058
665.603	29.9713	27.1363
665.777	30.2989	27.4249
665.95	30.3531	27.4485
666.123	30.4844	27.5439
666.297	30.6745	27.7989
666.47	30.9574	27.8272
666.643	31.0767	27.9484
666.816	31.3213	28.1213
666.99	31.4559	28.186
667.163	31.6565	28.372
667.336	32.0391	28.485
667.509	32.083	28.4617
667.682	32.382	28.6615
667.855	32.5884	28.7283
668.029	32.7262	28.9294
668.202	32.8773	29.0766
668.375	33.0376	29.2189
668.548	33.3832	29.4619
668.721	33.4934	29.4942
668.893	33.9484	29.48
669.066	33.7039	29.5562
669.239	34.0361	29.8297
669.412	34.144	29.9643
669.585	34.3961	30.0035
669.758	34.825	30.2049
669.931	35.0728	30.3253
670.103	35.1887	30.6037
670.276	35.2382	30.2964
670.449	35.3929	30.6741
670.622	35.767	30.8654
670.794	36.2365	31.2505
670.967	36.3101	31.172
671.139	36.5315	31.3748
671.312	36.723	31.3242
671.485	36.7881	31.6984
671.657	37.0426	31.7595
671.83	37.3685	31.8254
672.002	37.5626	31.8098
672.175	37.6876	32.3881
672.347	37.8968	32.15
672.519	38.0328	32.3961
672.692	38.073	32.7048
672.864	38.5858	32.6542
673.037	38.8383	32.881
673.209	39.0034	33.0214
673.381	38.7743	33.1954
673.553	39.4368	33.2974
673.726	39.7993	33.4165
673.898	40.0793	33.4662
674.07	40.0502	33.8044
674.242	40.4347	33.7727
674.414	40.7347	34.1404
674.587	41.0189	34.1621
674.759	41.0444	34.3345
674.931	41.4875	34.5559
675.103	41.7765	34.848
675.275	41.8352	34.7414
675.447	42.1559	35.048
675.619	42.2447	35.0642
675.791	42.3997	35.0711
675.963	42.8828	35.5627
676.134	43.0678	35.5483
676.306	43.1447	35.839
676.478	43.5903	36.1
676.65	43.7413	36.0294
676.822	44.0465	36.3412
676.994	44.4236	36.5324
677.165	44.4787	36.4776
677.337	44.7558	36.7504
677.509	44.812	36.7916
677.68	45.4176	37.1666
677.852	45.5263	37.1977
678.024	45.5736	37.3892
678.195	45.9804	37.4067
678.367	46.0637	37.6259
678.538	46.3842	37.9649
678.71	46.8729	38.0971
678.881	46.8335	38.0672
679.053	47.3342	38.3658
679.224	47.4094	38.4343
679.396	47.6026	38.6332
679.567	47.7395	38.9144
679.738	48.5609	39.1743
679.91	48.3618	39.3603
680.081	48.9306	39.679
680.252	49.1117	39.5285
680.424	49.311	40.0882
680.595	49.6607	39.9134
680.766	49.8016	40.4303
680.937	50.0946	40.1507
681.108	50.2521	40.2741
681.28	50.2987	40.8001
681.451	50.8795	41.0014
681.622	51.1201	41.0838
681.793	51.6162	41.2486
681.964	51.4396	41.4627
682.135	51.7681	41.5868
682.306	52.4725	41.7486
682.477	52.273	41.8418
682.648	52.4205	41.9173
682.819	52.9141	42.2093
682.99	53.0568	42.2749
683.16	53.4002	42.8731
683.331	54.0189	42.8428
683.502	54.1534	43.2856
683.673	54.6331	43.5982
683.844	54.6025	43.2443
684.014	54.893	43.9974
684.185	55.6235	43.885
684.356	55.4472	44.3468
684.526	55.776	44.4078
684.697	55.9029	44.593
684.868	56.3365	44.7054
685.038	56.8606	44.9424
685.209	56.5866	45.0163
685.379	57.1827	45.1825
685.55	57.4244	45.5752
685.72	57.5089	45.9619
685.891	57.8054	45.98
686.061	58.7077	45.7916
686.232	58.3301	46.2202
686.402	59.3949	46.3521
686.572	59.1154	46.6267
686.743	59.391	46.7022
686.913	59.7226	47.2412
687.083	59.9759	47.0068
687.254	60.4887	47.3425
687.424	60.736	47.8341
687.594	60.8718	47.8429
687.764	60.8748	48.0819
687.934	61.6512	48.0795
688.104	61.5584	48.3323
688.275	61.8419	48.442
688.445	62.1636	48.8863
688.615	62.4333	49.2502
688.785	62.8969	48.993
688.955	63.4373	49.6704
689.125	63.5514	49.2663
689.295	63.9075	49.8882
689.465	63.7959	50.1899
689.635	64.6506	50.181
689.805	64.6257	50.4653
689.974	64.3804	51.0697
690.144	65.24	51.0873
690.314	65.2671	51.0951
690.484	65.8957	51.5392
690.654	66.1016	51.3382
690.823	66.4495	51.9768
690.993	66.5631	52.2207
691.163	67.1463	51.8903
691.332	67.0451	52.5227
691.502	67.5602	52.8504
691.672	67.6967	52.4009
691.841	67.8733	53.1136
692.011	68.872	53.4809
692.18	69.0761	53.7876
692.35	68.9745	53.5837
692.519	69.3714	53.6875
692.689	69.9363	54.4006
692.858	69.8691	54.2672
693.027	69.7791	54.5217
693.197	70.0944	54.8572
693.366	70.5875	54.8732
693.536	71.4876	55.6323
693.705	71.6518	56.1357
693.874	71.6332	55.0199
694.043	72.1523	56.7829
694.213	72.0841	56.2252
694.382	72.4025	56.3685
694.551	72.9513	56.5779
694.72	73.0333	57.032
694.889	73.7365	57.0874
695.058	73.836	57.8533
695.228	73.9516	57.8263
695.397	74.6936	58.2569
695.566	74.3929	57.5996
695.735	74.6113	58.0928
695.904	75.2969	58.5047
696.073	75.9152	58.8893
696.242	75.9763	58.979
696.41	76.5733	58.7761
696.579	76.4213	59.0934
696.748	76.6869	59.3634
696.917	75.9704	59.7697
697.086	77.1939	59.6018
697.255	77.6172	60.5808
697.423	77.7696	60.513
697.592	78.0847	61.5705
697.761	78.3885	61.1772
697.929	78.2548	61.1145
698.098	79.0215	61.6167
698.267	79.7225	61.9443
698.435	79.6366	61.8527
698.604	79.5305	62.1935
698.772	80.0188	62.2334
698.941	80.4076	61.9032
699.109	80.5489	62.6756
699.278	81.0666	63.152
699.446	81.0871	63.6149
699.615	81.8343	63.2732
699.783	81.2908	63.5003
699.952	82.0469	63.9768
700.12	82.2812	64.4619
700.288	83.1591	64.6952
700.457	83.4354	64.7582
700.625	83.0285	65.0615
700.793	83.2234	65.1582
700.961	83.7492	64.9835
701.13	84.2063	65.4207
701.298	83.9553	65.6838
701.466	84.3476	66.339
701.634	84.4425	66.1049
701.802	85.9729	66.4999
701.97	85.354	66.9546
702.138	85.9016	66.7841
702.306	86.0411	67.266
702.474	86.4936	67.3565
702.642	87.0907	67.4026
702.81	86.0775	67.5708
702.978	87.5341	68.1572
703.146	86.5445	67.5048
703.314	87.9847	67.8568
703.482	87.2783	68.809
703.65	89.1071	69.069
703.818	88.5323	69.6887
703.985	88.1371	69.3178
704.153	89.2767	69.8672
704.321	88.3861	69.6604
704.488	89.6493	70.1741
704.656	89.0327	70.089
704.824	89.763	70.7981
704.991	90.7157	71.2844
705.159	89.9525	71.0614
705.327	90.5503	70.8755
705.494	90.8742	71.4901
705.662	90.403	71.909
705.829	91.457	71.4752
705.997	91.9362	72.8476
706.164	91.951	72.9354
706.332	92.5161	72.7693
706.499	92.8337	72.9463
706.666	92.4422	72.9783
706.834	92.8917	73.7376
707.001	93.3114	73.3533
707.168	94.0105	74.0093
707.336	93.6596	73.5746
707.503	93.8335	74.1303
707.67	93.9281	74.1381
707.837	94.7349	74.8422
708.004	94.6979	74.4814
708.172	94.2875	74.6149
708.339	95.4962	74.4305
708.506	94.3256	75.2836
708.673	95.3899	74.6371
708.84	95.1647	75.8863
709.007	96.663	76.203
709.174	96.8864	75.7469
709.341	96.5494	76.2075
709.508	96.2182	76.5291
709.675	98.3044	76.6694
709.842	96.9426	77.4156
710.009	98.1526	77.615
710.175	97.1007	77.2861
710.342	97.9211	77.4904
710.509	98.5605	78.8549
710.676	99.1052	78.0811
710.843	98.7241	78.2143
711.009	98.926	77.4028
711.176	100.084	79.5543
711.343	98.999	80.2065
711.509	99.0107	79.1549
711.676	101.4	79.4887
711.843	100.773	79.5949
712.009	101.694	79.5467
712.176	100.15	80.5545
712.342	100.335	79.7263
712.509	100.401	80.0235
712.675	101.867	79.9511
712.842	101.413	79.8592
713.008	101.739	81.1749
713.174	101.789	80.4145
713.341	101.709	81.7259
713.507	102.077	81.4337
713.673	102.557	81.7088
713.84	103.177	82.3826
714.006	103.239	83.2736
714.172	103.133	81.5543
714.339	102.419	82.7383
714.505	103.421	82.6886
714.671	104.318	83.8638
714.837	104.109	83.5982
715.003	103.331	83.1674
715.169	103.228	83.4057
715.335	104.085	82.9205
715.501	105.851	84.033
715.667	104.521	83.3938
715.833	103.907	84.9983
715.999	104.472	83.8307
716.165	105.01	83.5548
716.331	103.539	81.7967
716.497	106.859	86.9
716.663	105.649	85.361
716.829	105.507	85.1893
716.995	105.316	84.7923
717.161	106.257	85.9852
717.326	104.589	85.3451
717.492	107.031	86.1127
717.658	107.815	85.2267
717.823	106.31	86.1108
717.989	107.82	84.7838
718.155	108.655	88.2443
718.32	107.045	86.0576
718.486	108.931	87.6614
718.651	109.204	88.68
718.817	108.373	87.2467
718.983	108.579	87.1103
719.148	107.635	86.0037
719.314	108.093	86.4713
719.479	107.15	86.8156
719.644	109.224	87.4282
719.81	110.55	89.3539
719.975	108.195	87.3373
720.141	108.158	90.7696
720.306	108.281	88.6051
720.471	108.788	89.5397
720.636	109.396	89.6457
720.802	110.876	89.6913
720.967	110.99	90.3064
721.132	109.452	89.9126
721.297	109.651	90.044
721.462	109.745	89.306
721.628	110.717	89.2825
721.793	110.298	89.451
721.958	110.721	89.7122
722.123	110.977	90.5224
722.288	110.499	88.8126
722.453	110.323	91.1505
722.618	111.002	92.0479
722.783	111.499	91.8251
722.948	111.331	90.3678
723.112	111.733	90.9859
723.277	110.945	89.1093
723.442	112.558	92.5663
723.607	111.1	91.0222
723.772	112.09	91.1082
723.937	111.266	91.6302
724.101	113.165	92.538
724.266	112.416	91.1767
724.431	112.233	93.3555
724.595	111.781	91.2515
724.76	115.649	93.708
724.925	114.909	93.2169
725.089	111.636	92.8525
725.254	113.856	94.4035
725.418	114.33	93.7768
725.583	113.175	94.0191
725.747	114.351	95.1251
725.912	116.63	96.6278
726.076	115.65	95.01
726.241	114.128	92.948
726.405	115.777	93.1047
726.57	114.669	92.2585
726.734	114.4	95.0132
726.898	115.706	94.2876
727.062	116.738	93.8469
727.227	117.439	94.3757
727.391	116.372	95.3238
727.555	113.239	93.3257
727.719	118.788	97.4845
727.884	114.551	95.9141
728.048	115.266	97.1044
728.212	117.157	97.5012
728.376	117.59	97.1888
728.54	117.152	95.2139
728.704	119.88	96.8727
728.868	114.785	96.6513
729.032	118.367	96.6661
729.196	118.135	99.9347
729.36	118.602	96.1744
729.524	116.819	94.7102
729.688	118.296	97.9994
729.852	118.967	97.491
730.015	117.212	97.6717
730.179	116.854	97.1533
730.343	119.21	97.849
730.507	117.891	100.033
730.671	118.098	98.9191
730.834	118.654	99.9696
730.998	120.836	99.1389
731.162	117.573	97.6889
731.325	118.333	97.0715
731.489	118.152	97.7194
731.652	117.776	97.0041
731.816	123.02	99.2357
731.98	120.078	99.3143
732.143	120.248	100.132
732.307	120.407	98.0924
732.47	119.722	98.3616
732.633	121.045	101.247
732.797	120.865	99.4044
732.96	120.316	98.4408
733.124	122.403	98.8755
733.287	120.481	98.6548
733.45	122.635	98.7353
733.614	120.462	101.189
733.777	121.201	100.126
733.94	122.04	100.731
734.103	120.474	99.2613
734.266	123.203	97.2354
734.43	120.211	98.7664
734.593	121.006	99.361
734.756	125.816	103.776
734.919	122.713	102.361
735.082	122.849	103.05
735.245	121.346	102.74
735.408	126.862	105.098
735.571	124.695	103.11
735.734	124.871	103.347
735.897	126.097	102.35
736.06	126.166	102.968
736.223	127.188	107.851
736.386	126.489	104.208
736.549	122.557	104.371
736.711	123.132	105.262
736.874	130.625	106.633
737.037	125.584	103.37
737.2	125.258	103.67
737.362	122.331	102.297
737.525	126.089	107.225
737.688	124.605	104.383
737.85	126.963	105.625
738.013	126.146	105.563
738.176	125.454	107.167
738.338	127.762	106.716
738.501	124.61	107.233
738.663	123.37	103.952
738.826	126.269	109.094
738.988	125.287	103.678
739.151	130.681	106.63
739.313	128.583	106.953
739.475	127.555	109.695
739.638	126.902	106.066
739.8	125.591	106.716
739.962	125.782	105.196
740.125	126.441	108.57
740.287	126.527	109.5
740.449	126.936	105.652
740.611	127.714	107.044
740.774	126.842	102.051
740.936	126.474	105.221
741.098	127.269	106.552
741.26	130.434	106.585
741.422	129.637	108.894
741.584	131.893	109.359
741.746	133.288	110.453
741.908	129.398	110.149
742.07	136.653	113.145
742.232	126.039	104.596
742.394	129.296	109.171
742.556	130.817	105.817
742.718	132.367	110.825
742.88	131.906	110.724
743.042	135.477	111.25
743.203	131.225	109.242
743.365	132.599	113.381
743.527	135.113	108.839
743.689	133.431	112.934
743.85	134.205	110.434
744.012	130.395	112.612
744.174	135.534	116.094
744.335	135.714	116.24
744.497	131.235	109.84
744.658	134.45	115.861
744.82	131.681	113.21
744.982	132.784	111.745
745.143	136.092	115.813
745.305	135.178	114.702
745.466	134.63	112.061
745.627	137.736	116.61
745.789	133.692	115.437
745.95	138.833	114.73
746.112	134.769	114.312
746.273	135.977	119.184
746.434	140.017	116.011
746.596	135.781	114.225
746.757	137.923	115.827
746.918	137.751	113.677
747.079	137.732	113.957
747.24	138.531	118.08
747.402	136.729	116.519
747.563	137.378	112.957
747.724	133.451	113.82
747.885	139.905	115.3
748.046	137.62	118.333
748.207	136.032	117.371
748.368	132.073	112.261
748.529	136.114	114.563
748.69	140.297	119.02
748.851	141.675	116.384
749.012	135.743	115.541
749.173	136.166	114.145
749.334	142.708	119.248
749.494	137.272	115.485
749.655	139.211	116.739
749.816	135.661	116.473
749.977	139.772	115.966
750.137	138.961	118.477
750.298	135.975	114.922
750.459	139.509	115.381
750.62	137.078	114.194
750.78	140.744	120.998
750.941	138.899	119.022
751.101	139.596	117.962
751.262	137.194	115.075
751.422	143.566	117.889
751.583	140.25	120.175
751.743	139.762	118.711
751.904	137.895	117.759
752.064	138.605	122.086
752.225	146.29	118.799
752.385	140.725	120.438
752.545	142.092	119.191
752.706	139.878	118.582
752.866	140.717	120.068
753.026	141.968	124.609
753.187	139.926	120.406
753.347	141.126	119.905
753.507	143.133	118.352
753.667	143.941	119.392
753.827	145.092	122.523
753.988	148.74	124.875
754.148	143.612	121.959
754.308	138.319	115.223
754.468	144.186	122.111
754.628	142.437	122.799
754.788	140.73	118.207
754.948	143.435	121.562
755.108	145.773	121.998
755.268	140.332	121.334
755.428	145.298	122.802
755.587	143.424	123.629
755.747	140.345	121.525
755.907	139.559	120.83
756.067	142.585	121.64
756.227	145.214	122.661
756.386	149.128	125.133
756.546	142.188	118.321
756.706	145.525	120.827
756.866	143.121	122.43
757.025	139.808	120.564
757.185	145.117	119.311
757.344	144.644	118.059
757.504	140.495	123.359
757.664	141.597	119.497
757.823	147.839	124.941
757.983	149.523	122.378
758.142	152.62	127.042
758.302	147.311	122.669
758.461	148.185	125.764
758.62	144.634	119.438
758.78	149.465	128.482
758.939	147.238	127.11
759.098	149.002	122.499
759.258	143.432	120.711
759.417	145.668	128.224
759.576	143.294	123.266
759.735	142.441	127.232
759.895	142.883	120.435
760.054	144.361	123.91
760.213	154.388	129.351
760.372	151.808	129.093
760.531	149.762	128.516
760.69	145.536	126.707
760.849	145.097	127.19
761.008	149.644	129.074
761.167	154.551	128.979
761.326	153.524	125.762
761.485	148.822	130.354
761.644	149.644	124.319
761.803	151.252	122.8
761.962	147.179	128.369
762.121	147.628	124.696
762.28	153.069	131.239
762.439	149.419	125.227
762.597	146.561	122.253
762.756	146.285	131.588
762.915	144	123.814
763.073	147.886	126.417
763.232	148.804	126.536
763.391	151.846	130.299
763.549	156.161	133.972
763.708	142.044	118.645
763.867	151.005	129.313
764.025	153.335	131.007
764.184	145.895	123.428
764.342	153.047	122.574
764.501	148.452	129.162
764.659	0	0
764.818	154.595	125.99
764.976	148.838	126.833
765.134	0	0
765.293	0	0
765.451	0	0
765.609	0	0
765.768	0	0
765.926	145.292	126.297
766.084	0	0
766.242	0	0
766.4	0	0
766.559	0	0
766.717	0	0
766.875	0	0
767.033	0	0
767.191	0	0
767.349	0	0
767.507	0	0
767.665	0	0
767.823	0	0
767.981	0	0
768.139	0	0
768.297	0	0
768.454	0	0
768.612	0	0
768.77	0	0
768.928	0	0
769.086	0	0
769.243	0	0
769.401	0	0
769.559	0	0
769.716	0	0
769.874	0	0
770.031	0	0
770.189	0	0
770.347	0	0
770.504	0	0
770.662	0	0
770.819	0	0
770.977	0	0
771.134	0	0
771.291	0	0
771.449	0	0
771.606	0	0
771.763	0	0
771.921	0	0
772.078	0	0
772.235	0	0
772.393	0	0
772.55	0	0
772.707	0	0
772.864	0	0
773.021	0	0
773.178	0	0
773.335	0	0
773.492	0	0
773.649	0	0
773.806	0	0
773.963	0	0
774.12	0	0
774.277	0	0
774.434	0	0
774.591	0	0
774.748	0	0
774.905	0	0
775.061	0	0
775.218	0	0
775.375	0	0
775.532	0	0
775.688	0	0
775.845	0	0
776.002	0	0
776.158	0	0
776.315	0	0
776.471	0	0
776.628	0	0
776.784	0	0
776.941	0	0
777.097	0	0
777.254	0	0
777.41	0	0
777.567	0	0
777.723	0	0
777.879	0	0
778.036	0	0
778.192	0	0
778.348	0	0
778.505	0	0
778.661	0	0
778.817	0	0
778.973	0	0
779.129	0	0
779.285	0	0
779.442	0	0
779.598	0	0
779.754	0	0
779.91	0	0
780.066	0	0
780.222	0	0
780.378	0	0
780.533	0	0
780.689	0	0
780.845	0	0
781.001	0	0
781.157	0	0
781.313	0	0
781.468	0	0
781.624	0	0
781.78	0	0
781.936	0	0
782.091	0	0
782.247	0	0
782.403	0	0
782.558	0	0
782.714	0	0
782.869	0	0
783.025	0	0
783.18	0	0
783.336	0	0
783.491	0	0
783.647	0	0
783.802	0	0
783.957	0	0
784.113	0	0
784.268	0	0
784.423	0	0
784.578	0	0
784.734	0	0
784.889	0	0
785.044	0	0
785.199	0	0
785.354	0	0
785.51	0	0
785.665	0	0
785.82	0	0
785.975	0	0
786.13	0	0
786.285	0	0
786.44	0	0
786.595	0	0
786.75	0	0
786.905	0	0
787.059	0	0
787.214	0	0
787.369	0	0
787.524	0	0
787.679	0	0
787.833	0	0
787.988	0	0
788.143	0	0
788.297	0	0
788.452	0	0
788.607	0	0
788.761	0	0
788.916	0	0
789.07	0	0
789.225	0	0
789.379	0	0
789.534	0	0
789.688	0	0
789.843	0	0
789.997	0	0
790.151	0	0
790.306	0	0
790.46	0	0
790.614	0	0
790.769	0	0
790.923	0	0
791.077	0	0
791.231	0	0
791.385	0	0
791.54	0	0
791.694	0	0
791.848	0	0
792.002	0	0
792.156	0	0
792.31	0	0
792.464	0	0
792.618	0	0
792.772	0	0
792.926	0	0
793.08	0	0
793.233	0	0
793.387	0	0
793.541	0	0
793.695	0	0
793.849	0	0
794.002	0	0
794.156	0	0
794.31	0	0
794.463	0	0
794.617	0	0
794.771	0	0
794.924	0	0
795.078	0	0
795.231	0	0
795.385	0	0
795.538	0	0
795.692	0	0
795.845	0	0
795.999	0	0
796.152	0	0
796.305	0	0
796.459	0	0
796.612	0	0
796.765	0	0
796.919	0	0
797.072	0	0
797.225	0	0
797.378	0	0
797.531	0	0
797.685	0	0
797.838	0	0
797.991	0	0
798.144	0	0
798.297	0	0
798.45	0	0
798.603	0	0
798.756	0	0
798.909	0	0
799.062	0	0
799.214	0	0
799.367	0	0
799.52	0	0
799.673	0	0
799.826	0	0
799.979	0	0
800.131	0	0
800.284	0	0
800.437	0	0
800.589	0	0
800.742	0	0
800.895	0	0
801.047	0	0
801.2	0	0
801.352	0	0
801.505	0	0
801.657	0	0
801.81	0	0
801.962	0	0
802.115	0	0
802.267	0	0
802.419	0	0
802.572	0	0
802.724	0	0
802.876	0	0
803.028	0	0
803.181	0	0
803.333	0	0
803.485	0	0
803.637	0	0
803.789	0	0
803.941	0	0
804.094	0	0
804.246	0	0
804.398	0	0
804.55	0	0
804.702	0	0
804.854	0	0
805.005	0	0
805.157	0	0
805.309	0	0
805.461	0	0
805.613	0	0
805.765	0	0
805.917	0	0
806.068	0	0
806.22	0	0
806.372	0	0
806.523	0	0
806.675	0	0
806.827	0	0
806.978	0	0
807.13	0	0
807.281	0	0
807.433	0	0
807.584	0	0
807.736	0	0
807.887	0	0
808.039	0	0
808.19	0	0
808.342	0	0
808.493	0	0
808.644	0	0
808.796	0	0
808.947	0	0
809.098	0	0
809.249	0	0
