# Date: Thu Nov 9 15:14:09 2023
# LED: 1
#Wavelength	#Inital reflectance [%]	#Final reflectance [%]
91.0096	0	0
91.2522	0	0
91.4948	0	0
91.7374	0	0
91.98	0	0
92.2226	0	0
92.4651	0	0
92.7076	0	0
92.9501	0	0
93.1925	0	0
93.4349	0	0
93.6773	0	0
93.9197	0	0
94.1621	0	0
94.4044	0	0
94.6467	0	0
94.889	0	0
95.1312	0	0
95.3734	0	0
95.6156	0	0
95.8578	0	0
96.0999	0	0
96.3421	0	0
96.5842	0	0
96.8262	0	0
97.0683	0	0
97.3103	0	0
97.5523	0	0
97.7943	0	0
98.0362	0	0
98.2782	0	0
98.5201	0	0
98.7619	0	0
99.0038	0	0
99.2456	0	0
99.4874	0	0
99.7292	0	0
99.9709	0	0
100.213	0	0
100.454	0	0
100.696	0	0
100.938	0	0
101.179	0	0
101.421	0	0
101.662	0	0
101.904	0	0
102.146	0	0
102.387	0	0
102.629	0	0
102.87	0	0
103.111	0	0
103.353	0	0
103.594	0	0
103.835	0	0
104.077	0	0
104.318	0	0
104.559	0	0
104.801	0	0
105.042	0	0
105.283	0	0
105.524	0	0
105.765	0	0
106.006	0	0
106.248	0	0
106.489	0	0
106.73	0	0
106.971	0	0
107.212	0	0
107.453	0	0
107.694	0	0
107.935	0	0
108.175	0	0
108.416	0	0
108.657	0	0
108.898	0	0
109.139	0	0
109.38	0	0
109.62	0	0
109.861	0	0
110.102	0	0
110.342	0	0
110.583	0	0
110.824	0	0
111.064	0	0
111.305	0	0
111.545	0	0
111.786	0	0
112.026	0	0
112.267	0	0
112.507	0	0
112.748	0	0
112.988	0	0
113.228	0	0
113.469	0	0
113.709	0	0
113.949	0	0
114.19	0	0
114.43	0	0
114.67	0	0
114.91	0	0
115.151	0	0
115.391	0	0
115.631	0	0
115.871	0	0
116.111	0	0
116.351	0	0
116.591	0	0
116.831	0	0
117.071	0	0
117.311	0	0
117.551	0	0
117.791	0	0
118.031	0	0
118.27	0	0
118.51	0	0
118.75	0	0
118.99	0	0
119.23	0	0
119.469	0	0
119.709	0	0
119.949	0	0
120.188	0	0
120.428	0	0
120.667	0	0
120.907	0	0
121.147	0	0
121.386	0	0
121.626	0	0
121.865	0	0
122.104	0	0
122.344	0	0
122.583	0	0
122.823	0	0
123.062	0	0
123.301	0	0
123.541	0	0
123.78	0	0
124.019	0	0
124.258	0	0
124.498	0	0
124.737	0	0
124.976	0	0
125.215	0	0
125.454	0	0
125.693	0	0
125.932	0	0
126.171	0	0
126.41	0	0
126.649	0	0
126.888	0	0
127.127	0	0
127.366	0	0
127.605	0	0
127.844	0	0
128.082	0	0
128.321	0	0
128.56	0	0
128.799	0	0
129.037	0	0
129.276	0	0
129.515	0	0
129.753	0	0
129.992	0	0
130.231	0	0
130.469	0	0
130.708	0	0
130.946	0	0
131.185	0	0
131.423	0	0
131.662	0	0
131.9	0	0
132.138	0	0
132.377	0	0
132.615	0	0
132.853	0	0
133.092	0	0
133.33	0	0
133.568	0	0
133.806	0	0
134.045	0	0
134.283	0	0
134.521	0	0
134.759	0	0
134.997	0	0
135.235	0	0
135.473	0	0
135.711	0	0
135.949	0	0
136.187	0	0
136.425	0	0
136.663	0	0
136.901	0	0
137.139	0	0
137.377	0	0
137.614	0	0
137.852	0	0
138.09	0	0
138.328	0	0
138.565	0	0
138.803	0	0
139.041	0	0
139.278	0	0
139.516	0	0
139.754	0	0
139.991	0	0
140.229	0	0
140.466	0	0
140.704	0	0
140.941	0	0
141.179	0	0
141.416	0	0
141.653	0	0
141.891	0	0
142.128	0	0
142.365	0	0
142.603	0	0
142.84	0	0
143.077	0	0
143.314	0	0
143.552	0	0
143.789	0	0
144.026	0	0
144.263	0	0
144.5	0	0
144.737	0	0
144.974	0	0
145.211	0	0
145.448	0	0
145.685	0	0
145.922	0	0
146.159	0	0
146.396	0	0
146.633	0	0
146.869	0	0
147.106	0	0
147.343	0	0
147.58	0	0
147.817	0	0
148.053	0	0
148.29	0	0
148.527	0	0
148.763	0	0
149	0	0
149.236	0	0
149.473	0	0
149.71	0	0
149.946	0	0
150.182	0	0
150.419	0	0
150.655	0	0
150.892	0	0
151.128	0	0
151.365	0	0
151.601	0	0
151.837	0	0
152.073	0	0
152.31	0	0
152.546	0	0
152.782	0	0
153.018	0	0
153.254	0	0
153.491	0	0
153.727	0	0
153.963	0	0
154.199	0	0
154.435	0	0
154.671	0	0
154.907	0	0
155.143	0	0
155.379	0	0
155.615	0	0
155.851	0	0
156.086	0	0
156.322	0	0
156.558	0	0
156.794	0	0
157.03	0	0
157.265	0	0
157.501	0	0
157.737	0	0
157.972	0	0
158.208	0	0
158.444	0	0
158.679	0	0
158.915	0	0
159.15	0	0
159.386	0	0
159.621	0	0
159.857	0	0
160.092	0	0
160.328	0	0
160.563	0	0
160.798	0	0
161.034	0	0
161.269	0	0
161.504	0	0
161.739	0	0
161.975	0	0
162.21	0	0
162.445	0	0
162.68	0	0
162.915	0	0
163.15	0	0
163.385	0	0
163.621	0	0
163.856	0	0
164.091	0	0
164.326	0	0
164.561	0	0
164.795	0	0
165.03	0	0
165.265	0	0
165.5	0	0
165.735	0	0
165.97	0	0
166.204	0	0
166.439	0	0
166.674	0	0
166.909	0	0
167.143	0	0
167.378	0	0
167.613	0	0
167.847	0	0
168.082	0	0
168.316	0	0
168.551	0	0
168.785	0	0
169.02	0	0
169.254	0	0
169.489	0	0
169.723	0	0
169.958	0	0
170.192	0	0
170.426	0	0
170.66	0	0
170.895	0	0
171.129	0	0
171.363	0	0
171.597	0	0
171.832	0	0
172.066	0	0
172.3	0	0
172.534	0	0
172.768	0	0
173.002	0	0
173.236	0	0
173.47	0	0
173.704	0	0
173.938	0	0
174.172	0	0
174.406	0	0
174.64	0	0
174.874	0	0
175.107	0	0
175.341	0	0
175.575	0	0
175.809	0	0
176.042	0	0
176.276	0	0
176.51	0	0
176.743	0	0
176.977	0	0
177.211	0	0
177.444	0	0
177.678	0	0
177.911	0	0
178.145	0	0
178.378	0	0
178.612	0	0
178.845	0	0
179.079	0	0
179.312	0	0
179.545	0	0
179.779	0	0
180.012	0	0
180.245	0	0
180.478	0	0
180.712	0	0
180.945	0	0
181.178	0	0
181.411	0	0
181.644	0	0
181.877	0	0
182.111	0	0
182.344	0	0
182.577	0	0
182.81	0	0
183.043	0	0
183.275	0	0
183.508	0	0
183.741	0	0
183.974	0	0
184.207	0	0
184.44	0	0
184.673	0	0
184.905	0	0
185.138	0	0
185.371	0	0
185.604	0	0
185.836	0	0
186.069	0	0
186.302	0	0
186.534	0	0
186.767	0	0
186.999	0	0
187.232	0	0
187.464	0	0
187.697	0	0
187.929	0	0
188.162	0	0
188.394	0	0
188.626	0	0
188.859	0	0
189.091	0	0
189.323	0	0
189.556	0	0
189.788	0	0
190.02	0	0
190.252	0	0
190.484	0	0
190.717	0	0
190.949	0	0
191.181	0	0
191.413	0	0
191.645	0	0
191.877	0	0
192.109	0	0
192.341	0	0
192.573	0	0
192.805	0	0
193.037	0	0
193.268	0	0
193.5	0	0
193.732	0	0
193.964	0	0
194.196	0	0
194.427	0	0
194.659	0	0
194.891	0	0
195.123	0	0
195.354	0	0
195.586	0	0
195.817	0	0
196.049	0	0
196.281	0	0
196.512	0	0
196.744	0	0
196.975	0	0
197.206	0	0
197.438	0	0
197.669	0	0
197.901	0	0
198.132	0	0
198.363	0	0
198.595	0	0
198.826	0	0
199.057	0	0
199.288	0	0
199.519	0	0
199.751	0	0
199.982	0	0
200.213	0	0
200.444	0	0
200.675	0	0
200.906	0	0
201.137	0	0
201.368	0	0
201.599	0	0
201.83	0	0
202.061	0	0
202.292	0	0
202.523	0	0
202.754	0	0
202.984	0	0
203.215	0	0
203.446	0	0
203.677	0	0
203.907	0	0
204.138	0	0
204.369	0	0
204.599	0	0
204.83	0	0
205.061	0	0
205.291	0	0
205.522	0	0
205.752	0	0
205.983	0	0
206.213	0	0
206.444	0	0
206.674	0	0
206.904	0	0
207.135	0	0
207.365	0	0
207.595	0	0
207.826	0	0
208.056	0	0
208.286	0	0
208.516	0	0
208.747	0	0
208.977	0	0
209.207	0	0
209.437	0	0
209.667	0	0
209.897	0	0
210.127	0	0
210.357	0	0
210.587	0	0
210.817	0	0
211.047	0	0
211.277	0	0
211.507	0	0
211.737	0	0
211.967	0	0
212.196	0	0
212.426	0	0
212.656	0	0
212.886	0	0
213.115	0	0
213.345	0	0
213.575	0	0
213.804	0	0
214.034	0	0
214.264	0	0
214.493	0	0
214.723	0	0
214.952	0	0
215.182	0	0
215.411	0	0
215.641	0	0
215.87	0	0
216.099	0	0
216.329	0	0
216.558	0	0
216.787	0	0
217.017	0	0
217.246	0	0
217.475	0	0
217.704	0	0
217.934	0	0
218.163	0	0
218.392	0	0
218.621	0	0
218.85	0	0
219.079	0	0
219.308	0	0
219.537	0	0
219.766	0	0
219.995	0	0
220.224	0	0
220.453	0	0
220.682	0	0
220.911	0	0
221.14	0	0
221.368	0	0
221.597	0	0
221.826	0	0
222.055	0	0
222.283	0	0
222.512	0	0
222.741	0	0
222.969	0	0
223.198	0	0
223.426	0	0
223.655	0	0
223.884	0	0
224.112	0	0
224.341	0	0
224.569	0	0
224.797	0	0
225.026	0	0
225.254	0	0
225.483	0	0
225.711	0	0
225.939	0	0
226.168	0	0
226.396	0	0
226.624	0	0
226.852	0	0
227.08	0	0
227.309	0	0
227.537	0	0
227.765	0	0
227.993	0	0
228.221	0	0
228.449	0	0
228.677	0	0
228.905	0	0
229.133	0	0
229.361	0	0
229.589	0	0
229.817	0	0
230.045	0	0
230.272	0	0
230.5	0	0
230.728	0	0
230.956	0	0
231.183	0	0
231.411	0	0
231.639	0	0
231.866	0	0
232.094	0	0
232.322	0	0
232.549	0	0
232.777	0	0
233.004	0	0
233.232	0	0
233.459	0	0
233.687	0	0
233.914	0	0
234.142	0	0
234.369	0	0
234.596	0	0
234.824	0	0
235.051	0	0
235.278	0	0
235.506	0	0
235.733	0	0
235.96	0	0
236.187	0	0
236.414	0	0
236.641	0	0
236.869	0	0
237.096	0	0
237.323	0	0
237.55	0	0
237.777	0	0
238.004	0	0
238.231	0	0
238.458	0	0
238.685	0	0
238.911	0	0
239.138	0	0
239.365	0	0
239.592	0	0
239.819	0	0
240.045	0	0
240.272	0	0
240.499	0	0
240.726	0	0
240.952	0	0
241.179	0	0
241.405	0	0
241.632	0	0
241.859	0	0
242.085	0	0
242.312	0	0
242.538	0	0
242.764	0	0
242.991	0	0
243.217	0	0
243.444	0	0
243.67	0	0
243.896	0	0
244.123	0	0
244.349	0	0
244.575	0	0
244.801	0	0
245.028	0	0
245.254	0	0
245.48	0	0
245.706	0	0
245.932	0	0
246.158	0	0
246.384	0	0
246.61	0	0
246.836	0	0
247.062	0	0
247.288	0	0
247.514	0	0
247.74	0	0
247.966	0	0
248.192	0	0
248.418	0	0
248.643	0	0
248.869	0	0
249.095	0	0
249.321	0	0
249.546	0	0
249.772	0	0
249.998	0	0
250.223	0	0
250.449	0	0
250.675	0	0
250.9	0	0
251.126	0	0
251.351	0	0
251.577	0	0
251.802	0	0
252.027	0	0
252.253	0	0
252.478	0	0
252.704	0	0
252.929	0	0
253.154	0	0
253.379	0	0
253.605	0	0
253.83	0	0
254.055	0	0
254.28	0	0
254.505	0	0
254.731	0	0
254.956	0	0
255.181	0	0
255.406	0	0
255.631	0	0
255.856	0	0
256.081	0	0
256.306	0	0
256.531	0	0
256.756	0	0
256.98	0	0
257.205	0	0
257.43	0	0
257.655	0	0
257.88	0	0
258.104	0	0
258.329	0	0
258.554	0	0
258.779	0	0
259.003	0	0
259.228	0	0
259.452	0	0
259.677	0	0
259.902	0	0
260.126	0	0
260.351	0	0
260.575	0	0
260.799	0	0
261.024	0	0
261.248	0	0
261.473	0	0
261.697	0	0
261.921	0	0
262.146	0	0
262.37	0	0
262.594	0	0
262.818	0	0
263.043	0	0
263.267	0	0
263.491	0	0
263.715	0	0
263.939	0	0
264.163	0	0
264.387	0	0
264.611	0	0
264.835	0	0
265.059	0	0
265.283	0	0
265.507	0	0
265.731	0	0
265.955	0	0
266.179	0	0
266.402	0	0
266.626	0	0
266.85	0	0
267.074	0	0
267.298	0	0
267.521	0	0
267.745	0	0
267.969	0	0
268.192	0	0
268.416	0	0
268.639	0	0
268.863	0	0
269.086	0	0
269.31	0	0
269.533	0	0
269.757	0	0
269.98	0	0
270.204	0	0
270.427	0	0
270.65	0	0
270.874	0	0
271.097	0	0
271.32	0	0
271.543	0	0
271.767	0	0
271.99	0	0
272.213	0	0
272.436	0	0
272.659	0	0
272.882	0	0
273.105	0	0
273.328	0	0
273.551	0	0
273.774	0	0
273.997	0	0
274.22	0	0
274.443	0	0
274.666	0	0
274.889	0	0
275.112	0	0
275.335	0	0
275.557	0	0
275.78	0	0
276.003	0	0
276.226	0	0
276.448	0	0
276.671	0	0
276.894	0	0
277.116	0	0
277.339	0	0
277.561	0	0
277.784	0	0
278.007	0	0
278.229	0	0
278.452	0	0
278.674	0	0
278.896	0	0
279.119	0	0
279.341	0	0
279.563	0	0
279.786	0	0
280.008	0	0
280.23	0	0
280.453	0	0
280.675	0	0
280.897	0	0
281.119	0	0
281.341	0	0
281.563	0	0
281.785	0	0
282.008	0	0
282.23	0	0
282.452	0	0
282.674	0	0
282.896	0	0
283.117	0	0
283.339	0	0
283.561	0	0
283.783	0	0
284.005	0	0
284.227	0	0
284.449	0	0
284.67	0	0
284.892	0	0
285.114	0	0
285.336	0	0
285.557	0	0
285.779	0	0
286	0	0
286.222	0	0
286.444	0	0
286.665	0	0
286.887	0	0
287.108	0	0
287.33	0	0
287.551	0	0
287.772	0	0
287.994	0	0
288.215	0	0
288.437	0	0
288.658	0	0
288.879	0	0
289.1	0	0
289.322	0	0
289.543	0	0
289.764	0	0
289.985	0	0
290.206	0	0
290.427	0	0
290.649	0	0
290.87	0	0
291.091	0	0
291.312	0	0
291.533	0	0
291.754	0	0
291.974	0	0
292.195	0	0
292.416	0	0
292.637	0	0
292.858	0	0
293.079	0	0
293.3	0	0
293.52	0	0
293.741	0	0
293.962	0	0
294.182	0	0
294.403	0	0
294.624	0	0
294.844	0	0
295.065	0	0
295.286	0	0
295.506	0	0
295.727	0	0
295.947	0	0
296.168	0	0
296.388	0	0
296.608	0	0
296.829	0	0
297.049	0	0
297.269	0	0
297.49	0	0
297.71	0	0
297.93	0	0
298.151	0	0
298.371	0	0
298.591	0	0
298.811	0	0
299.031	0	0
299.251	0	0
299.471	0	0
299.691	0	0
299.911	0	0
300.132	0	0
300.352	0	0
300.571	0	0
300.791	0	0
301.011	0	0
301.231	0	0
301.451	0	0
301.671	0	0
301.891	0	0
302.11	0	0
302.33	0	0
302.55	0	0
302.77	0	0
302.989	0	0
303.209	0	0
303.429	0	0
303.648	0	0
303.868	0	0
304.087	0	0
304.307	0	0
304.526	0	0
304.746	0	0
304.965	0	0
305.185	0	0
305.404	0	0
305.624	0	0
305.843	0	0
306.062	0	0
306.282	0	0
306.501	0	0
306.72	0	0
306.939	0	0
307.159	0	0
307.378	0	0
307.597	0	0
307.816	0	0
308.035	0	0
308.254	0	0
308.473	0	0
308.692	0	0
308.911	0	0
309.13	0	0
309.349	0	0
309.568	0	0
309.787	0	0
310.006	0	0
310.225	0	0
310.444	0	0
310.662	0	0
310.881	0	0
311.1	0	0
311.319	0	0
311.537	0	0
311.756	0	0
311.975	0	0
312.193	0	0
312.412	0	0
312.631	0	0
312.849	0	0
313.068	0	0
313.286	0	0
313.505	0	0
313.723	0	0
313.941	0	0
314.16	0	0
314.378	0	0
314.597	0	0
314.815	0	0
315.033	0	0
315.252	0	0
315.47	0	0
315.688	0	0
315.906	0	0
316.124	0	0
316.343	0	0
316.561	0	0
316.779	0	0
316.997	0	0
317.215	0	0
317.433	0	0
317.651	0	0
317.869	0	0
318.087	0	0
318.305	0	0
318.523	0	0
318.741	0	0
318.958	0	0
319.176	0	0
319.394	0	0
319.612	0	0
319.83	0	0
320.047	0	0
320.265	0	0
320.483	0	0
320.7	0	0
320.918	0	0
321.136	0	0
321.353	0	0
321.571	0	0
321.788	0	0
322.006	0	0
322.223	0	0
322.441	0	0
322.658	0	0
322.875	0	0
323.093	0	0
323.31	0	0
323.528	0	0
323.745	0	0
323.962	0	0
324.179	0	0
324.397	0	0
324.614	0	0
324.831	0	0
325.048	0	0
325.265	0	0
325.482	0	0
325.699	0	0
325.916	0	0
326.133	0	0
326.35	0	0
326.567	0	0
326.784	0	0
327.001	0	0
327.218	0	0
327.435	0	0
327.652	0	0
327.869	0	0
328.086	0	0
328.302	0	0
328.519	0	0
328.736	0	0
328.953	0	0
329.169	0	0
329.386	0	0
329.602	0	0
329.819	0	0
330.036	0	0
330.252	0	0
330.469	0	0
330.685	0	0
330.902	0	0
331.118	0	0
331.335	0	0
331.551	0	0
331.767	0	0
331.984	0	0
332.2	0	0
332.416	0	0
332.633	0	0
332.849	0	0
333.065	0	0
333.281	0	0
333.497	0	0
333.714	0	0
333.93	0	0
334.146	0	0
334.362	0	0
334.578	0	0
334.794	0	0
335.01	0	0
335.226	0	0
335.442	0	0
335.658	0	0
335.874	0	0
336.09	0	0
336.305	0	0
336.521	0	0
336.737	0	0
336.953	0	0
337.168	0	0
337.384	0	0
337.6	0	0
337.816	0	0
338.031	0	0
338.247	0	0
338.462	0	0
338.678	0	0
338.894	0	0
339.109	0	0
339.325	0	0
339.54	0	0
339.755	0	0
339.971	0	0
340.186	0	0
340.402	0	0
340.617	0	0
340.832	0	0
341.048	0	0
341.263	0	0
341.478	0	0
341.693	0	0
341.909	0	0
342.124	0	0
342.339	0	0
342.554	0	0
342.769	0	0
342.984	0	0
343.199	0	0
343.414	0	0
343.629	0	0
343.844	0	0
344.059	0	0
344.274	0	0
344.489	0	0
344.704	0	0
344.919	0	0
345.133	0	0
345.348	0	0
345.563	0	0
345.778	0	0
345.992	0	0
346.207	0	0
346.422	0	0
346.636	0	0
346.851	0	0
347.066	0	0
347.28	0	0
347.495	0	0
347.709	0	0
347.924	0	0
348.138	0	0
348.353	0	0
348.567	0	0
348.782	0	0
348.996	0	0
349.21	0	0
349.425	0	0
349.639	0	0
349.853	0	0
350.067	0	0
350.282	0	0
350.496	0	0
350.71	0	0
350.924	0	0
351.138	0	0
351.352	0	0
351.566	0	0
351.78	0	0
351.994	0	0
352.208	0	0
352.422	0	0
352.636	0	0
352.85	0	0
353.064	0	0
353.278	0	0
353.492	0	0
353.706	0	0
353.919	0	0
354.133	0	0
354.347	0	0
354.561	0	0
354.774	0	0
354.988	0	0
355.202	0	0
355.415	0	0
355.629	0	0
355.842	0	0
356.056	0	0
356.269	0	0
356.483	0	0
356.696	0	0
356.91	0	0
357.123	0	0
357.337	0	0
357.55	0	0
357.763	0	0
357.977	0	0
358.19	0	0
358.403	0	0
358.616	0	0
358.83	0	0
359.043	0	0
359.256	0	0
359.469	0	0
359.682	0	0
359.895	0	0
360.108	0	0
360.321	0	0
360.534	0	0
360.747	0	0
360.96	0	0
361.173	0	0
361.386	0	0
361.599	0	0
361.812	0	0
362.025	0	0
362.238	0	0
362.45	0	0
362.663	0	0
362.876	0	0
363.089	0	0
363.301	0	0
363.514	0	0
363.727	0	0
363.939	0	0
364.152	0	0
364.364	0	0
364.577	0	0
364.789	0	0
365.002	0	0
365.214	0	0
365.427	0	0
365.639	0	0
365.852	0	0
366.064	0	0
366.276	0	0
366.489	0	0
366.701	0	0
366.913	0	0
367.125	0	0
367.338	0	0
367.55	0	0
367.762	0	0
367.974	0	0
368.186	0	0
368.398	0	0
368.61	0	0
368.822	0	0
369.034	0	0
369.246	0	0
369.458	0	0
369.67	0	0
369.882	0	0
370.094	0	0
370.306	0	0
370.518	0	0
370.73	0	0
370.941	0	0
371.153	0	0
371.365	0	0
371.577	0	0
371.788	0	0
372	0	0
372.212	0	0
372.423	0	0
372.635	0	0
372.846	0	0
373.058	0	0
373.269	0	0
373.481	0	0
373.692	0	0
373.904	0	0
374.115	0	0
374.327	0	0
374.538	0	0
374.749	0	0
374.961	0	0
375.172	0	0
375.383	0	0
375.594	0	0
375.805	0	0
376.017	0	0
376.228	0	0
376.439	0	0
376.65	0	0
376.861	0	0
377.072	0	0
377.283	0	0
377.494	0	0
377.705	0	0
377.916	0	0
378.127	0	0
378.338	0	0
378.549	0	0
378.76	0	0
378.971	0	0
379.181	0	0
379.392	0	0
379.603	0	0
379.814	0	0
380.024	0	0
380.235	0	0
380.446	0	0
380.656	0	0
380.867	0	0
381.078	0	0
381.288	0	0
381.499	0	0
381.709	0	0
381.92	0	0
382.13	0	0
382.34	0	0
382.551	0	0
382.761	0	0
382.972	0	0
383.182	0	0
383.392	0	0
383.603	0	0
383.813	0	0
384.023	0	0
384.233	0	0
384.443	0	0
384.654	0	0
384.864	0	0
385.074	0	0
385.284	0	0
385.494	0	0
385.704	0	0
385.914	0	0
386.124	0	0
386.334	0	0
386.544	0	0
386.754	0	0
386.964	0	0
387.173	0	0
387.383	0	0
387.593	0	0
387.803	0	0
388.013	0	0
388.222	0	0
388.432	0	0
388.642	0	0
388.851	0	0
389.061	0	0
389.271	0	0
389.48	0	0
389.69	0	0
389.899	0	0
390.109	0	0
390.318	0	0
390.528	0	0
390.737	0	0
390.947	0	0
391.156	0	0
391.365	0	0
391.575	0	0
391.784	0	0
391.993	0	0
392.202	0	0
392.412	0	0
392.621	0	0
392.83	0	0
393.039	0	0
393.248	0	0
393.457	0	0
393.666	0	0
393.876	0	0
394.085	0	0
394.294	0	0
394.503	0	0
394.711	0	0
394.92	0	0
395.129	0	0
395.338	0	0
395.547	0	0
395.756	0	0
395.965	0	0
396.173	0	0
396.382	0	0
396.591	0	0
396.8	0	0
397.008	0	0
397.217	0	0
397.426	0	0
397.634	0	0
397.843	0	0
398.051	0	0
398.26	0	0
398.468	0	0
398.677	0	0
398.885	0	0
399.094	0	0
399.302	0	0
399.51	0	0
399.719	0	0
399.927	0	0
400.135	0	0
400.344	0	0
400.552	0	0
400.76	0	0
400.968	0	0
401.176	0	0
401.385	0	0
401.593	0	0
401.801	0	0
402.009	0	0
402.217	0	0
402.425	0	0
402.633	0	0
402.841	0	0
403.049	0	0
403.257	0	0
403.465	0	0
403.673	0	0
403.88	0	0
404.088	0	0
404.296	0	0
404.504	0	0
404.712	0	0
404.919	0	0
405.127	0	0
405.335	0	0
405.542	0	0
405.75	0	0
405.958	0	0
406.165	0	0
406.373	0	0
406.58	0	0
406.788	0	0
406.995	0	0
407.203	0	0
407.41	0	0
407.617	0	0
407.825	0	0
408.032	0	0
408.239	36.8398	36.2229
408.447	38.541	36.1675
408.654	35.2999	33.8235
408.861	37.989	38.1606
409.068	38.459	35.9252
409.276	39.5469	37.1577
409.483	36.666	37.2385
409.69	38.2561	37.1101
409.897	38.3638	38.1935
410.104	39.57	37.4249
410.311	39.7938	39.0312
410.518	40.2462	38.9882
410.725	37.7075	36.3597
410.932	39.7545	38.0372
411.139	40.6318	37.4565
411.346	39.9527	40.0118
411.553	41.2753	39.5843
411.76	41.416	39.7781
411.967	39.3673	38.0801
412.174	41.5436	39.7768
412.381	42.4863	40.0461
412.587	42.6433	40.3177
412.794	40.9056	38.9713
413.001	42.2086	39.4325
413.208	43.4891	39.862
413.414	43.6755	41.2911
413.621	42.7052	40.3258
413.828	44.0871	41.2727
414.034	43.6191	41.6505
414.241	44.0781	42.92
414.447	44.5324	41.0965
414.654	45.0949	42.3552
414.86	44.5536	41.7651
415.067	44.9668	42.6161
415.273	44.9779	41.7108
415.48	46.0257	41.8406
415.686	44.6256	40.5505
415.893	46.3118	42.7627
416.099	45.4215	41.5734
416.305	47.2225	43.4308
416.512	45.4075	42.0412
416.718	47.2072	42.5554
416.924	45.5731	42.7015
417.131	46.2516	42.1054
417.337	46.8419	42.985
417.543	47.156	43.156
417.749	45.9008	43.2055
417.955	47.3221	43.705
418.161	46.6661	42.708
418.367	47.4898	43.8544
418.574	47.1149	44.2789
418.78	48.4256	43.6368
418.986	47.8087	43.4289
419.192	48.0133	43.2927
419.398	47.5103	43.6457
419.604	48.0752	43.9471
419.809	47.8023	42.9748
420.015	47.6626	43.0366
420.221	48.5017	43.6042
420.427	48.4487	43.4877
420.633	48.4891	43.8587
420.839	48.2591	44.0428
421.044	49.0165	43.8174
421.25	48.9921	44.2066
421.456	49.1	43.9746
421.662	49.1189	44.0034
421.867	49.2548	44.2897
422.073	49.7601	44.2933
422.278	49.4382	44.2588
422.484	49.7499	44.7303
422.69	48.9276	44.2541
422.895	49.8736	44.6249
423.101	49.7109	44.4259
423.306	49.5559	44.3027
423.512	49.6903	44.6844
423.717	49.8175	44.6792
423.922	49.3967	44.3332
424.128	49.644	44.4736
424.333	50.0291	44.4483
424.539	50.4453	44.5239
424.744	50.0467	44.458
424.949	50.137	44.853
425.154	50.1266	45.0519
425.36	51.149	44.5684
425.565	50.8337	44.9758
425.77	50.3125	44.6935
425.975	50.1488	44.7449
426.18	50.7106	44.9785
426.385	50.2076	45.028
426.591	50.3045	44.7682
426.796	50.8857	44.9551
427.001	50.6668	45.0347
427.206	51.2253	44.8432
427.411	51.0518	45.1019
427.616	51.129	45.14
427.821	51.1327	44.9485
428.026	51.4963	45.5082
428.23	51.517	44.9511
428.435	51.1109	45.3993
428.64	51.504	45.6826
428.845	51.4113	44.9271
429.05	51.5932	45.1509
429.254	51.3973	45.1494
429.459	51.4273	45.619
429.664	51.5217	45.561
429.869	51.6509	45.6771
430.073	51.695	45.2721
430.278	52.1184	45.528
430.483	51.9296	45.3238
430.687	52.0184	45.2605
430.892	52.1883	45.488
431.096	52.0616	45.7224
431.301	51.9422	45.4493
431.505	52.2772	45.695
431.71	52.2017	45.6543
431.914	52.3791	45.5085
432.118	52.4362	45.6632
432.323	52.049	45.6519
432.527	52.3944	45.5587
432.732	52.3237	45.6418
432.936	52.3396	45.7656
433.14	52.5872	45.6815
433.344	52.5008	45.6665
433.549	52.6082	45.6266
433.753	52.8028	45.7416
433.957	52.4468	45.772
434.161	52.7173	45.6866
434.365	52.576	45.7754
434.57	52.7921	45.8629
434.774	52.8471	45.8344
434.978	52.9399	45.9511
435.182	52.8627	45.7978
435.386	52.9441	45.8104
435.59	53.1349	45.7697
435.794	53.1022	45.7594
435.998	53.1478	45.8256
436.201	52.9263	45.8814
436.405	53.0488	46.0024
436.609	53.1979	46.0739
436.813	53.2631	45.8921
437.017	53.0375	46.0758
437.221	53.4009	46.0913
437.424	53.2279	46.2624
437.628	53.3253	46.2681
437.832	53.4099	46.3286
438.036	53.2869	46.1592
438.239	53.4501	46.4483
438.443	53.4409	46.4527
438.646	53.6743	46.6563
438.85	53.6906	46.7127
439.054	53.6257	46.5576
439.257	53.6762	46.7928
439.461	53.6652	46.8454
439.664	53.9152	46.9968
439.868	53.7975	47.2458
440.071	53.6961	47.0591
440.274	53.7077	47.1065
440.478	53.8795	47.517
440.681	54.0151	47.4294
440.885	53.9817	47.5428
441.088	53.8813	47.7635
441.291	53.7184	47.7407
441.494	53.9895	47.8883
441.698	54.0045	48.0811
441.901	53.9156	47.9666
442.104	54.0329	48.3958
442.307	54.0743	48.4694
442.51	53.7453	48.4649
442.713	53.8695	48.5615
442.916	54.0219	48.8296
443.12	53.9228	48.8824
443.323	53.9555	48.8477
443.526	53.8969	49.1085
443.729	54.113	49.2732
443.932	54.0683	49.2477
444.134	54.1039	49.4619
444.337	54.1175	49.6721
444.54	54.0371	49.6044
444.743	53.9676	49.6094
444.946	54.0598	49.8054
445.149	53.9462	49.9055
445.352	53.8308	49.9618
445.554	53.7322	50.0299
445.757	53.8562	50.3086
445.96	53.8741	50.2526
446.162	53.8694	50.3885
446.365	53.8454	50.3075
446.568	53.9024	50.4199
446.77	54.0392	50.6409
446.973	53.8497	50.6018
447.175	53.6954	50.7918
447.378	53.9582	50.8209
447.58	53.7847	50.813
447.783	53.978	50.8131
447.985	53.8501	50.8627
448.188	53.7437	50.9447
448.39	53.7362	50.8277
448.593	53.9216	50.7246
448.795	53.8703	50.7579
448.997	53.9395	50.9928
449.2	53.5946	50.7079
449.402	53.7637	50.626
449.604	53.8893	50.7119
449.806	53.9561	50.8346
450.009	53.7066	50.5786
450.211	53.7267	50.5985
450.413	53.7159	50.6913
450.615	53.8824	50.3588
450.817	53.7429	50.3164
451.019	53.7064	50.3732
451.221	53.614	50.3596
451.423	53.7169	50.3693
451.625	53.4409	50.2596
451.827	53.6438	50.4761
452.029	53.7121	50.2791
452.231	53.6894	50.0692
452.433	53.7205	49.9949
452.635	53.6261	49.974
452.837	53.5124	50.0017
453.039	53.5754	49.9837
453.24	53.7693	49.9962
453.442	53.643	49.8619
453.644	53.6932	49.6503
453.846	53.7212	49.9312
454.047	53.5814	49.635
454.249	53.6838	49.8355
454.451	53.6029	49.5406
454.652	53.5148	49.7382
454.854	53.6076	49.6501
455.056	53.5867	49.4946
455.257	53.7212	49.5562
455.459	53.5372	49.6884
455.66	53.6228	49.5197
455.862	53.3406	49.3356
456.063	53.3409	49.6176
456.265	53.3975	49.7752
456.466	53.488	49.4268
456.667	53.5639	49.6933
456.869	53.5458	49.614
457.07	53.3769	49.6289
457.271	53.2378	49.5084
457.473	53.5028	49.5466
457.674	53.3795	49.7524
457.875	53.1959	49.6756
458.076	53.0916	49.7387
458.277	53.1591	49.5421
458.479	53.4321	49.4464
458.68	53.2523	49.6596
458.881	53.0942	49.5707
459.082	53.1489	49.5812
459.283	53.106	49.8226
459.484	53.2036	49.8366
459.685	53.2809	49.8698
459.886	53.1003	49.8733
460.087	53.0828	49.9829
460.288	52.9058	49.8072
460.489	52.9281	49.7717
460.69	52.8792	49.746
460.89	52.863	49.7317
461.091	53.1314	49.702
461.292	52.5839	49.7164
461.493	53.1578	49.5682
461.694	52.8458	49.6868
461.894	53.2448	49.7899
462.095	52.7281	49.6545
462.296	52.9797	49.5379
462.496	52.8484	49.4789
462.697	52.6854	49.8174
462.898	52.906	49.636
463.098	52.6348	49.5634
463.299	52.6005	49.3115
463.499	52.5678	49.2824
463.7	52.4589	49.4405
463.9	52.2608	49.3105
464.101	52.5414	49.2955
464.301	52.5334	49.2518
464.501	52.322	49.173
464.702	52.2757	49.219
464.902	52.4833	49.1583
465.103	52.2583	48.9191
465.303	52.3067	49.1153
465.503	52.2528	48.8272
465.703	52.2823	48.7494
465.904	52.4743	48.9141
466.104	52.2739	48.6669
466.304	52.3035	48.7401
466.504	52.1467	48.4342
466.704	52.3095	48.6544
466.904	52.0123	48.3526
467.104	52.1359	48.3283
467.304	51.8532	48.3667
467.504	51.9679	48.5425
467.704	51.966	48.1114
467.904	51.8633	48.2237
468.104	51.5094	47.9964
468.304	51.573	47.8583
468.504	51.5522	48.0207
468.704	51.7002	47.6172
468.904	51.3417	47.7766
469.104	51.522	47.9343
469.304	51.6507	47.6554
469.503	51.4349	47.6165
469.703	51.4739	47.5691
469.903	51.2893	47.4224
470.103	51.3236	47.3406
470.302	51.0511	47.3075
470.502	51.0453	47.3511
470.701	51.4314	47.4716
470.901	50.9308	46.9617
471.101	51.111	47.2247
471.3	50.8008	46.888
471.5	50.9437	47.007
471.699	50.6943	46.8373
471.899	50.6786	46.8576
472.098	50.6462	46.6747
472.298	50.5935	46.6226
472.497	50.5033	46.7639
472.696	50.3481	46.5141
472.896	50.2111	46.3789
473.095	50.3545	46.5719
473.294	50.318	46.4432
473.494	50.3061	46.4509
473.693	50.3946	46.3117
473.892	50.2985	46.3103
474.091	50.2007	46.2489
474.29	50.0118	46.2192
474.49	49.8018	46.2382
474.689	49.9626	46.0506
474.888	49.9456	46.0225
475.087	49.9455	46.181
475.286	49.9306	45.8118
475.485	49.739	45.9015
475.684	49.869	46.0344
475.883	49.3794	45.6481
476.082	49.548	45.6375
476.281	49.5399	45.6121
476.48	49.3187	45.5677
476.678	49.4701	45.2636
476.877	49.5371	45.4087
477.076	49.096	45.1796
477.275	49.112	45.2877
477.474	49.1246	44.9001
477.672	48.9449	45.1748
477.871	48.9307	45.2073
478.07	48.8872	45.138
478.269	48.8695	45.2174
478.467	48.8405	44.9268
478.666	48.6449	44.7598
478.864	48.7074	44.7287
479.063	48.6053	44.7157
479.262	48.3587	44.2534
479.46	48.3561	44.634
479.659	48.1986	44.2999
479.857	48.2814	44.5103
480.055	47.8967	44.3185
480.254	48.018	44.2338
480.452	48.1772	44.2004
480.651	47.9108	44.2491
480.849	48.12	44.1216
481.047	48.0024	43.9953
481.246	47.5732	44.0157
481.444	47.6852	44.0273
481.642	47.5752	43.5898
481.84	47.3846	43.6199
482.039	47.2378	43.6987
482.237	47.1974	43.4378
482.435	47.1918	43.5834
482.633	46.9672	43.4046
482.831	46.9709	43.4626
483.029	46.8887	43.16
483.227	46.9046	43.112
483.425	46.694	43.2435
483.623	46.8215	43.129
483.821	46.6067	42.9834
484.019	46.5954	43.008
484.217	46.2591	42.7727
484.415	46.4775	42.7567
484.613	46.0468	42.7652
484.811	46.399	42.6138
485.008	45.9303	42.5087
485.206	45.8278	42.4835
485.404	45.9386	42.1633
485.602	45.7051	42.3189
485.799	45.5597	42.155
485.997	45.7624	42.2308
486.195	45.3928	42.2477
486.392	45.4349	42.0522
486.59	45.37	41.9349
486.788	45.2268	41.8203
486.985	45.2489	41.8165
487.183	45.1727	41.7004
487.38	45.0596	41.7115
487.578	44.796	41.6251
487.775	44.9538	41.4845
487.973	44.6509	41.3855
488.17	44.6597	41.3543
488.367	44.4576	41.3791
488.565	44.5549	41.2078
488.762	44.5088	41.1602
488.959	44.4218	41.1937
489.157	44.1989	40.9865
489.354	44.128	41.0438
489.551	43.9785	40.8839
489.749	43.9984	40.8175
489.946	43.8821	40.8876
490.143	43.8811	40.7335
490.34	43.6442	40.7473
490.537	43.5186	40.4539
490.734	43.476	40.4058
490.931	43.4197	40.3812
491.128	43.2189	40.258
491.325	43.2878	40.3937
491.522	42.9491	40.1961
491.719	42.9304	40.1878
491.916	42.9981	39.9713
492.113	42.919	39.8461
492.31	42.6932	39.9037
492.507	42.7668	40.0142
492.704	42.4686	39.5457
492.901	42.3808	39.9229
493.097	42.2868	39.8162
493.294	42.3474	39.7416
493.491	42.225	39.6883
493.688	41.8925	39.5486
493.884	41.9409	39.4014
494.081	41.8309	39.1697
494.278	41.7354	39.3224
494.474	41.5612	39.2548
494.671	41.3147	39.0582
494.867	41.5511	38.864
495.064	41.296	38.9723
495.26	41.2652	38.8867
495.457	41.0798	38.6826
495.653	40.8375	38.8446
495.85	40.8477	38.5996
496.046	40.851	38.6457
496.243	40.6296	38.5042
496.439	40.5536	38.3982
496.635	40.5404	38.4153
496.832	40.4153	38.4699
497.028	40.3665	38.2441
497.224	40.2526	38.0358
497.42	40.1725	37.9827
497.617	39.878	37.9891
497.813	39.8686	38.0555
498.009	39.8514	37.9628
498.205	39.5301	37.7006
498.401	39.6539	37.7444
498.597	39.5345	37.6737
498.793	39.4263	37.6608
498.989	39.2868	37.6037
499.185	39.2161	37.3264
499.381	39.0754	37.2811
499.577	38.8414	37.0836
499.773	38.828	37.0914
499.969	38.8097	37.1572
500.165	38.5377	37.039
500.361	38.5518	37.1574
500.557	38.4761	37.0262
500.753	38.3043	36.827
500.948	38.2991	36.614
501.144	38.0455	36.6683
501.34	37.9613	36.6063
501.536	37.869	36.3858
501.731	37.8432	36.3979
501.927	37.4196	36.3844
502.123	37.6196	36.2486
502.318	37.6034	36.1858
502.514	37.2947	36.1674
502.709	37.398	36.0454
502.905	37.091	35.9488
503.1	37.1249	35.8318
503.296	36.77	35.6449
503.491	36.9006	35.8485
503.687	36.7701	35.5771
503.882	36.676	35.5991
504.078	36.4706	35.6758
504.273	36.5562	35.4218
504.468	36.3424	35.2732
504.664	36.0392	35.1956
504.859	35.9251	34.9479
505.054	36.0977	35.0509
505.249	35.8749	35.0196
505.445	35.9097	34.9177
505.64	35.5147	34.8635
505.835	35.5987	34.9361
506.03	35.456	34.5923
506.225	35.5491	34.5528
506.42	35.261	34.4858
506.615	35.1814	34.3593
506.81	35.0392	34.3434
507.005	35.0569	34.3774
507.2	34.8722	34.1258
507.395	34.8632	34.0932
507.59	34.7515	34.1772
507.785	34.5276	33.9565
507.98	34.5376	34.0095
508.175	34.2766	33.7084
508.37	34.1687	33.6611
508.564	34.103	33.7414
508.759	34.0134	33.5204
508.954	33.8706	33.4692
509.149	33.6906	33.3939
509.343	33.7292	33.2899
509.538	33.7964	33.2803
509.733	33.5633	33.1258
509.927	33.4699	33.0599
510.122	33.4292	33.0001
510.317	33.2563	33.012
510.511	33.1899	32.8509
510.706	33.1464	32.8438
510.9	32.9385	32.6804
511.095	32.7306	32.774
511.289	32.7034	32.6215
511.484	32.6106	32.4737
511.678	32.5763	32.4608
511.872	32.415	32.4001
512.067	32.3544	32.3576
512.261	32.4096	32.1987
512.455	32.1069	32.1037
512.65	32.0767	32.0022
512.844	31.9854	32.0121
513.038	31.9133	31.9653
513.232	31.6995	31.9129
513.427	31.5574	31.6481
513.621	31.6348	31.7735
513.815	31.4049	31.5725
514.009	31.2529	31.5563
514.203	31.2513	31.4161
514.397	31.2235	31.4643
514.591	31.0337	31.3495
514.785	31.0296	31.1732
514.979	30.888	31.0379
515.173	30.749	31.0659
515.367	30.6556	30.9862
515.561	30.4952	30.9248
515.755	30.4131	30.8758
515.949	30.4671	30.7436
516.142	30.3378	30.7001
516.336	30.283	30.6128
516.53	30.1082	30.4397
516.724	29.9945	30.3752
516.917	29.9461	30.3823
517.111	29.7962	30.2965
517.305	29.7614	30.2178
517.499	29.5919	30.1732
517.692	29.6423	30.0552
517.886	29.3359	29.9296
518.079	29.3379	29.8558
518.273	29.2447	29.8808
518.466	29.1994	29.719
518.66	29.0876	29.6243
518.853	29.0852	29.6709
519.047	28.8652	29.5913
519.24	28.7164	29.4519
519.434	28.8113	29.2845
519.627	28.5275	29.3429
519.82	28.6168	29.1693
520.014	28.4365	29.1327
520.207	28.2967	29.1589
520.4	28.1568	28.8843
520.594	28.0795	28.9383
520.787	28.0639	28.8053
520.98	27.9358	28.6383
521.173	27.8775	28.7397
521.366	27.7345	28.5413
521.56	27.7644	28.6275
521.753	27.7388	28.4677
521.946	27.4985	28.4686
522.139	27.5114	28.4924
522.332	27.2977	28.2338
522.525	27.2673	28.1566
522.718	27.069	28.1504
522.911	26.8837	28.0296
523.104	26.9909	27.99
523.297	26.8943	27.8786
523.489	26.7288	27.8108
523.682	26.6432	27.6715
523.875	26.5558	27.6859
524.068	26.5483	27.545
524.261	26.4882	27.5802
524.453	26.3467	27.4701
524.646	26.2138	27.3262
524.839	26.1496	27.325
525.031	26.0682	27.2108
525.224	25.9634	27.2009
525.417	25.897	27.0008
525.609	25.7776	27.0247
525.802	25.6328	26.9268
525.995	25.6146	26.8132
526.187	25.6481	26.613
526.38	25.4157	26.7504
526.572	25.2561	26.6668
526.765	25.2484	26.5411
526.957	25.245	26.2895
527.149	25.1263	26.4074
527.342	25.038	26.2327
527.534	24.9812	26.2688
527.726	24.7958	26.1094
527.919	24.7741	26.1291
528.111	24.6928	26.126
528.303	24.559	25.9857
528.495	24.4904	25.8634
528.688	24.4595	25.9239
528.88	24.3337	25.7315
529.072	24.2102	25.7909
529.264	24.0673	25.6297
529.456	24.0595	25.5256
529.648	23.773	25.4439
529.84	23.9399	25.5073
530.032	23.6797	25.2809
530.224	23.7593	25.3289
530.416	23.6961	25.3678
530.608	23.5757	25.1579
530.8	23.4562	25.0102
530.992	23.3353	25.0186
531.184	23.4448	24.9361
531.376	23.1525	25.0026
531.568	23.1058	24.8564
531.759	23.1021	24.7168
531.951	22.9547	24.6957
532.143	22.8985	24.6375
532.335	22.7017	24.3944
532.526	22.7429	24.348
532.718	22.6773	24.3191
532.91	22.5909	24.2916
533.101	22.559	24.1455
533.293	22.4618	24.1899
533.484	22.3664	24.1044
533.676	22.3269	23.9138
533.868	22.1501	24.0387
534.059	22.0543	23.8967
534.251	21.9627	23.7723
534.442	21.983	23.7312
534.633	21.886	23.7738
534.825	21.8067	23.6043
535.016	21.7053	23.5884
535.208	21.6564	23.4996
535.399	21.5742	23.3841
535.59	21.4875	23.3845
535.781	21.3901	23.399
535.973	21.326	23.2669
536.164	21.1987	23.0806
536.355	21.106	23.0867
536.546	21.1103	23.0218
536.737	21.0186	22.9857
536.929	20.9955	22.9891
537.12	20.8904	22.9566
537.311	20.7158	22.6676
537.502	20.691	22.6132
537.693	20.6123	22.5492
537.884	20.4752	22.5516
538.075	20.5171	22.3903
538.266	20.4548	22.4713
538.457	20.3804	22.359
538.648	20.227	22.2817
538.838	20.2668	22.2755
539.029	20.1132	22.1993
539.22	19.9921	22.1376
539.411	19.9074	22.1743
539.602	19.8653	22.0037
539.792	19.8397	21.9453
539.983	19.6825	21.8377
540.174	19.6845	21.7754
540.365	19.6346	21.7795
540.555	19.5955	21.7414
540.746	19.513	21.6593
540.936	19.3796	21.6944
541.127	19.229	21.5301
541.317	19.2832	21.3558
541.508	19.2467	21.4529
541.698	19.1506	21.2969
541.889	19.0874	21.2982
542.079	19.0296	21.2568
542.27	18.9108	21.104
542.46	18.8444	21.1051
542.651	18.7402	20.9549
542.841	18.7243	20.9831
543.031	18.6275	20.9171
543.222	18.6616	20.801
543.412	18.4725	20.9174
543.602	18.4105	20.7796
543.792	18.4557	20.7877
543.982	18.3708	20.6928
544.173	18.174	20.6462
544.363	18.2396	20.5249
544.553	18.148	20.4365
544.743	18.0773	20.3488
544.933	17.9401	20.2786
545.123	18.011	20.2411
545.313	17.8382	20.1951
545.503	17.7312	20.1397
545.693	17.6879	20.1378
545.883	17.622	20.1338
546.073	17.642	19.8963
546.263	17.5943	20.076
546.453	17.4022	19.8488
546.643	17.3752	19.8663
546.832	17.3781	19.7403
547.022	17.2496	19.7775
547.212	17.2291	19.5925
547.402	17.1606	19.5941
547.591	16.9711	19.5139
547.781	17.0263	19.5225
547.971	17.0134	19.4585
548.16	16.9742	19.4299
548.35	16.7459	19.3097
548.54	16.8016	19.2404
548.729	16.6816	19.3042
548.919	16.6282	19.2104
549.108	16.5443	19.1078
549.298	16.5452	19.1288
549.487	16.4933	19.071
549.677	16.4079	18.9137
549.866	16.3508	18.8967
550.055	16.3186	18.8464
550.245	16.283	18.8442
550.434	16.1211	18.8551
550.623	16.0515	18.689
550.813	16.1455	18.6672
551.002	16.0445	18.5918
551.191	15.9672	18.5938
551.381	15.8861	18.442
551.57	15.8275	18.4535
551.759	15.778	18.4313
551.948	15.6841	18.3113
552.137	15.7598	18.3981
552.326	15.6792	18.2626
552.515	15.6236	18.2703
552.704	15.5714	18.2368
552.893	15.4231	18.1256
553.082	15.3875	18.1136
553.271	15.3504	18.1015
553.46	15.2515	18.0147
553.649	15.2334	18.036
553.838	15.2393	17.9414
554.027	15.163	17.872
554.216	15.0294	17.9405
554.405	15.0538	17.8847
554.593	15.0228	17.7541
554.782	14.9161	17.7026
554.971	14.9188	17.6392
555.16	14.7952	17.605
555.348	14.7878	17.5555
555.537	14.7164	17.4496
555.726	14.7065	17.4964
555.914	14.6133	17.3993
556.103	14.5962	17.3693
556.291	14.6557	17.2847
556.48	14.4895	17.3187
556.668	14.4457	17.2938
556.857	14.4652	17.2363
557.045	14.379	17.1776
557.234	14.4142	17.165
557.422	14.2579	17.1689
557.611	14.2599	17.1186
557.799	14.1303	17.0171
557.987	14.1676	17.0597
558.176	14.1928	16.8785
558.364	13.978	17.0029
558.552	14.0102	16.8154
558.74	14.0169	16.8506
558.929	13.925	16.7549
559.117	13.9238	16.8191
559.305	13.8804	16.7318
559.493	13.763	16.7404
559.681	13.8167	16.7744
559.869	13.6572	16.526
560.057	13.6532	16.5511
560.245	13.6414	16.5244
560.433	13.6076	16.4199
560.621	13.6007	16.462
560.809	13.5417	16.4025
560.997	13.5322	16.3784
561.185	13.4476	16.3696
561.373	13.4247	16.3928
561.561	13.3218	16.1979
561.749	13.3226	16.2293
561.937	13.356	16.1704
562.124	13.2477	16.2133
562.312	13.2253	16.056
562.5	13.2589	16.1766
562.688	13.1252	15.9935
562.875	13.1629	15.9594
563.063	13.0954	15.9455
563.251	13.0854	15.9757
563.438	12.9932	15.8961
563.626	12.9806	15.8515
563.813	12.9304	15.8732
564.001	12.8308	15.7747
564.188	12.8946	15.7591
564.376	12.8935	15.7356
564.563	12.8582	15.7405
564.751	12.8001	15.6587
564.938	12.6447	15.5556
565.126	12.7318	15.6757
565.313	12.6862	15.599
565.5	12.6038	15.4628
565.688	12.6043	15.5186
565.875	12.6561	15.5224
566.062	12.5066	15.4761
566.249	12.5426	15.4089
566.437	12.4973	15.4158
566.624	12.4631	15.3197
566.811	12.4567	15.3183
566.998	12.3043	15.3256
567.185	12.3639	15.2629
567.372	12.3555	15.2242
567.559	12.1975	15.1914
567.746	12.2614	15.2011
567.933	12.2761	15.1033
568.12	12.2289	15.084
568.307	12.1576	15.1645
568.494	12.2792	15.0797
568.681	12.031	15.0203
568.868	12.0986	15.0164
569.055	12.1095	15.0765
569.242	11.995	14.9631
569.429	11.9616	14.8266
569.615	12.0205	14.8882
569.802	11.9936	14.7826
569.989	11.9474	14.8749
570.176	11.8557	14.7029
570.362	11.8144	14.7958
570.549	11.8664	14.7139
570.736	11.8841	14.7626
570.922	11.7941	14.6848
571.109	11.7889	14.673
571.295	11.715	14.6699
571.482	11.6033	14.6004
571.668	11.7453	14.5304
571.855	11.7208	14.6309
572.041	11.6443	14.4829
572.228	11.6657	14.4666
572.414	11.5206	14.4403
572.601	11.5504	14.3856
572.787	11.4811	14.4634
572.973	11.5327	14.4561
573.16	11.514	14.3024
573.346	11.4873	14.347
573.532	11.4684	14.2932
573.718	11.4096	14.28
573.905	11.4359	14.3395
574.091	11.3606	14.3134
574.277	11.3669	14.1879
574.463	11.3498	14.1669
574.649	11.2576	14.2016
574.835	11.2563	14.1185
575.021	11.2673	14.2033
575.207	11.3014	14.1351
575.393	11.1914	14.0573
575.579	11.2096	13.957
575.765	11.1736	13.9743
575.951	11.0983	14.0284
576.137	10.9997	13.8799
576.323	11.0689	13.99
576.509	11.1426	13.9556
576.695	11.1195	13.9806
576.88	11.0301	13.9188
577.066	10.9923	13.8363
577.252	10.923	13.8531
577.438	10.9616	13.8523
577.623	10.9365	13.7086
577.809	10.9728	13.8592
577.995	10.8539	13.6902
578.18	10.9235	13.7445
578.366	10.9126	13.6753
578.552	10.8784	13.67
578.737	10.7995	13.6128
578.923	10.7995	13.6119
579.108	10.805	13.7033
579.294	10.766	13.6258
579.479	10.7596	13.5365
579.665	10.7169	13.5319
579.85	10.7518	13.4197
580.035	10.7318	13.5668
580.221	10.6451	13.5107
580.406	10.6522	13.4697
580.591	10.6979	13.3567
580.777	10.6255	13.4066
580.962	10.5656	13.409
581.147	10.6519	13.3749
581.332	10.5985	13.3359
581.517	10.6193	13.2642
581.703	10.5598	13.3027
581.888	10.5421	13.329
582.073	10.5274	13.2041
582.258	10.4781	13.3131
582.443	10.4476	13.2613
582.628	10.4107	13.1799
582.813	10.3322	13.1789
582.998	10.3885	13.1089
583.183	10.3707	13.2187
583.368	10.3683	13.1825
583.553	10.3337	13.0331
583.738	10.3588	13.077
583.923	10.3489	13.0093
584.107	10.2992	13.0167
584.292	10.2665	13.0615
584.477	10.2557	12.9859
584.662	10.33	13.0599
584.846	10.2426	12.9524
585.031	10.2822	12.9176
585.216	10.2113	12.9945
585.4	10.1505	12.8954
585.585	10.2227	12.933
585.77	10.1472	12.8004
585.954	10.1317	12.804
586.139	10.1477	12.8496
586.323	10.101	12.7602
586.508	10.1308	12.859
586.692	10.0495	12.7877
586.877	10.0192	12.7979
587.061	10.1283	12.7829
587.246	10.017	12.6321
587.43	10.022	12.7132
587.614	9.95817	12.6809
587.799	9.98385	12.6914
587.983	9.93777	12.6521
588.167	9.96192	12.6692
588.351	9.9846	12.6019
588.536	9.90819	12.5969
588.72	9.90071	12.5624
588.904	9.85266	12.5783
589.088	9.85411	12.558
589.272	9.78339	12.5217
589.456	9.79777	12.5238
589.641	9.81303	12.434
589.825	9.82477	12.4474
590.009	9.81331	12.4861
590.193	9.82371	12.4251
590.377	9.80263	12.4416
590.561	9.73259	12.3603
590.745	9.79829	12.3639
590.928	9.69602	12.3531
591.112	9.7315	12.3996
591.296	9.70031	12.2935
591.48	9.7398	12.3176
591.664	9.64843	12.3216
591.848	9.59752	12.2956
592.031	9.61877	12.2574
592.215	9.67189	12.2431
592.399	9.54187	12.213
592.582	9.62815	12.2223
592.766	9.59987	12.144
592.95	9.6093	12.1786
593.133	9.53772	12.1691
593.317	9.51075	12.1836
593.5	9.4572	12.107
593.684	9.45013	12.112
593.867	9.42163	12.1182
594.051	9.47481	12.1412
594.234	9.43567	11.9972
594.418	9.43271	12.0682
594.601	9.54007	11.9909
594.785	9.3639	12.0589
594.968	9.28112	11.9858
595.151	9.41222	11.9964
595.334	9.41058	11.855
595.518	9.38883	11.8629
595.701	9.35069	11.9523
595.884	9.29454	11.927
596.067	9.367	11.8318
596.251	9.33936	11.9048
596.434	9.27524	11.7703
596.617	9.29249	11.8644
596.8	9.30131	11.7966
596.983	9.23759	11.7828
597.166	9.23271	11.7433
597.349	9.17682	11.7657
597.532	9.22637	11.7461
597.715	9.18326	11.7408
597.898	9.1629	11.7251
598.081	9.16341	11.7198
598.264	9.14678	11.6685
598.447	9.14151	11.7296
598.63	9.04765	11.6735
598.812	9.08539	11.6845
598.995	9.02444	11.6515
599.178	9.05033	11.5958
599.361	9.00935	11.6981
599.543	9.02633	11.6105
599.726	9.02948	11.567
599.909	8.98529	11.5453
600.091	8.99877	11.5933
600.274	9.00397	11.5516
600.457	8.97241	11.5182
600.639	8.92181	11.5046
600.822	8.88869	11.4621
601.004	8.94175	11.5227
601.187	8.90377	11.4501
601.369	8.9104	11.4211
601.552	8.82337	11.4079
601.734	8.94295	11.4486
601.917	8.81866	11.3619
602.099	8.89042	11.3457
602.281	8.81667	11.3869
602.464	8.86686	11.3821
602.646	8.80211	11.4004
602.828	8.78319	11.3513
603.01	8.78887	11.3544
603.193	8.72635	11.3132
603.375	8.69013	11.2993
603.557	8.81399	11.2749
603.739	8.72619	11.2464
603.921	8.73004	11.1791
604.103	8.74993	11.2274
604.285	8.66021	11.181
604.467	8.61741	11.1882
604.65	8.62572	11.2299
604.832	8.62465	11.1396
605.013	8.64614	11.1846
605.195	8.59158	11.1452
605.377	8.66384	11.1484
605.559	8.52983	11.1379
605.741	8.59099	11.0939
605.923	8.57533	11.0598
606.105	8.58155	11.1544
606.287	8.56845	11.0747
606.468	8.60293	11.0897
606.65	8.48157	11.0569
606.832	8.51336	11.1388
607.013	8.46767	11.0248
607.195	8.50166	11.0182
607.377	8.47428	11.0239
607.558	8.51805	10.9742
607.74	8.46516	10.9573
607.922	8.45043	11.0302
608.103	8.42002	10.9611
608.285	8.41164	10.9897
608.466	8.36749	10.9285
608.648	8.42405	10.9778
608.829	8.42101	11.0269
609.01	8.37292	10.937
609.192	8.37712	10.9538
609.373	8.33181	10.9695
609.555	8.33775	10.8992
609.736	8.33551	10.8553
609.917	8.34649	10.9065
610.099	8.35717	10.8773
610.28	8.38658	10.8716
610.461	8.37683	10.8704
610.642	8.35696	10.8783
610.823	8.35666	10.8028
611.004	8.31622	10.8066
611.186	8.29627	10.7999
611.367	8.35455	10.8223
611.548	8.28694	10.7752
611.729	8.28959	10.8019
611.91	8.26083	10.8566
612.091	8.23431	10.7467
612.272	8.26979	10.8019
612.453	8.24807	10.7217
612.634	8.2156	10.7387
612.815	8.21482	10.796
612.995	8.22832	10.7458
613.176	8.18846	10.746
613.357	8.22084	10.6878
613.538	8.19083	10.736
613.719	8.22782	10.7327
613.899	8.23011	10.7254
614.08	8.13036	10.6927
614.261	8.16136	10.627
614.441	8.21844	10.7615
614.622	8.17175	10.7152
614.803	8.20333	10.7858
614.983	8.09514	10.6359
615.164	8.10188	10.6872
615.344	8.14408	10.7134
615.525	8.12881	10.5839
615.705	8.14019	10.6726
615.886	8.14833	10.7018
616.066	8.17396	10.6619
616.247	8.12418	10.7173
616.427	8.14882	10.6329
616.607	8.16093	10.7327
616.788	8.14171	10.583
616.968	8.11945	10.6363
617.148	8.12015	10.64
617.329	8.16912	10.6494
617.509	8.09849	10.6082
617.689	8.13111	10.5965
617.869	8.17166	10.6289
618.049	8.12912	10.6492
618.23	8.13032	10.688
618.41	8.09855	10.6671
618.59	8.11739	10.6057
618.77	8.20773	10.6609
618.95	8.11454	10.6228
619.13	8.19052	10.5886
619.31	8.10529	10.5915
619.49	8.14259	10.6819
619.67	8.11714	10.6329
619.85	8.16995	10.6072
620.03	8.1424	10.6557
620.209	8.17659	10.6603
620.389	8.1677	10.6902
620.569	8.19339	10.6437
620.749	8.25965	10.6773
620.929	8.1974	10.6832
621.108	8.20305	10.659
621.288	8.20346	10.6673
621.468	8.14773	10.6963
621.647	8.12069	10.7338
621.827	8.20905	10.7023
622.007	8.14284	10.7092
622.186	8.21729	10.7281
622.366	8.20332	10.6611
622.545	8.2439	10.6839
622.725	8.27817	10.7309
622.904	8.24729	10.7192
623.084	8.29435	10.6914
623.263	8.30643	10.7097
623.443	8.30543	10.7948
623.622	8.30975	10.7938
623.802	8.30799	10.7652
623.981	8.38713	10.736
624.16	8.30703	10.7556
624.339	8.33421	10.7701
624.519	8.40481	10.8599
624.698	8.40446	10.885
624.877	8.39638	10.829
625.056	8.39101	10.8322
625.235	8.41136	10.8677
625.415	8.45428	10.9225
625.594	8.45182	10.7808
625.773	8.48037	10.9076
625.952	8.45647	10.9605
626.131	8.50838	10.9225
626.31	8.55604	10.9163
626.489	8.57991	10.9522
626.668	8.54208	10.9816
626.847	8.6208	10.9878
627.026	8.55939	11.0093
627.205	8.64419	11.0207
627.383	8.6495	11.0549
627.562	8.60854	11.1128
627.741	8.73618	11.0589
627.92	8.75566	11.0448
628.099	8.74422	11.1168
628.277	8.77176	11.0957
628.456	8.79792	11.218
628.635	8.76037	11.2232
628.813	8.84491	11.19
628.992	8.77091	11.1951
629.171	8.8959	11.2675
629.349	8.82353	11.2485
629.528	8.96607	11.2484
629.706	8.97099	11.2734
629.885	8.96075	11.2381
630.063	8.94129	11.3051
630.242	9.016	11.2834
630.42	8.97268	11.258
630.599	9.07179	11.3466
630.777	9.07121	11.403
630.955	9.15579	11.5136
631.134	9.20954	11.5191
631.312	9.2194	11.4174
631.49	9.25168	11.4664
631.669	9.34238	11.6431
631.847	9.28228	11.5463
632.025	9.33925	11.6143
632.203	9.35537	11.5813
632.381	9.43584	11.634
632.56	9.40236	11.6848
632.738	9.32006	11.7304
632.916	9.43863	11.6706
633.094	9.5524	11.8061
633.272	9.53325	11.7807
633.45	9.6063	11.8056
633.628	9.66862	11.8024
633.806	9.69195	11.8879
633.984	9.66324	11.8086
634.162	9.74599	11.9568
634.339	9.81792	11.907
634.517	9.88273	11.9827
634.695	9.93375	12.0299
634.873	9.88267	12.0546
635.051	9.96919	12.1059
635.229	9.9333	12.0755
635.406	10.03	12.1356
635.584	10.0377	12.1336
635.762	10.1176	12.1534
635.939	10.131	12.2332
636.117	10.2704	12.2842
636.295	10.3035	12.4245
636.472	10.32	12.3414
636.65	10.342	12.4091
636.827	10.3896	12.5039
637.005	10.467	12.5366
637.182	10.4776	12.501
637.36	10.5773	12.5866
637.537	10.577	12.6456
637.715	10.7088	12.7576
637.892	10.7331	12.6497
638.069	10.7664	12.712
638.247	10.7926	12.8546
638.424	10.8104	12.7947
638.601	10.9372	12.9126
638.778	11.0686	12.9397
638.956	11.0113	12.942
639.133	11.1162	12.9742
639.31	11.1567	13.0077
639.487	11.2139	13.1302
639.664	11.3478	13.1723
639.841	11.2611	13.205
640.019	11.4156	13.2258
640.196	11.4617	13.211
640.373	11.5381	13.2548
640.55	11.5555	13.3366
640.727	11.6889	13.3658
640.904	11.742	13.4366
641.081	11.7867	13.433
641.257	11.866	13.4871
641.434	11.814	13.5606
641.611	12.0108	13.6676
641.788	11.982	13.6166
641.965	12.0648	13.7887
642.142	12.1869	13.7869
642.318	12.1404	13.7502
642.495	12.2942	13.7645
642.672	12.4221	13.832
642.848	12.3768	13.9011
643.025	12.5405	13.9985
643.202	12.578	14.1095
643.378	12.6018	14.1555
643.555	12.6277	14.0847
643.731	12.7426	14.2099
643.908	12.8546	14.2698
644.084	12.834	14.2874
644.261	12.9755	14.2895
644.437	13.1226	14.501
644.614	13.1707	14.4399
644.79	13.3542	14.5706
644.967	13.3243	14.5773
645.143	13.4074	14.6453
645.319	13.4895	14.6477
645.496	13.5964	14.8325
645.672	13.7114	14.8223
645.848	13.7329	14.8335
646.024	13.6818	14.8759
646.201	13.9183	15.081
646.377	13.8552	15.0684
646.553	14.1306	15.0819
646.729	14.1065	15.2493
646.905	14.2453	15.2525
647.081	14.3776	15.3693
647.257	14.3418	15.3702
647.433	14.5204	15.4238
647.609	14.5242	15.4887
647.785	14.6132	15.4627
647.961	14.7266	15.7086
648.137	14.7447	15.6906
648.313	14.9047	15.8782
648.489	14.9588	15.7099
648.665	15.1194	15.9715
648.841	15.2236	15.8622
649.016	15.342	16.1114
649.192	15.3999	16.0613
649.368	15.5122	16.1857
649.544	15.5982	16.2104
649.719	15.6955	16.2875
649.895	15.7058	16.3037
650.071	15.8732	16.4571
650.246	16.0519	16.4497
650.422	16.1116	16.6768
650.597	16.192	16.6767
650.773	16.3909	16.8229
650.949	16.3331	16.7952
651.124	16.4743	16.8825
651.3	16.6292	16.9514
651.475	16.704	16.9859
651.65	16.8166	17.035
651.826	16.8157	17.1008
652.001	16.9781	17.3028
652.177	17.0767	17.2787
652.352	17.1813	17.3016
652.527	17.3567	17.4324
652.702	17.3696	17.4298
652.878	17.4084	17.5503
653.053	17.7074	17.6237
653.228	17.7271	17.6815
653.403	17.8931	17.783
653.578	18.0667	17.9093
653.754	18.0679	18.0614
653.929	18.1847	18.153
654.104	18.3731	18.0865
654.279	18.4409	18.157
654.454	18.591	18.3099
654.629	18.5979	18.3284
654.804	18.8834	18.5108
654.979	19.0306	18.6529
655.154	19.0738	18.597
655.329	19.1623	18.8005
655.503	19.2131	18.7756
655.678	19.344	18.7904
655.853	19.5032	18.8248
656.028	19.5414	18.9771
656.203	19.725	19.1534
656.377	19.7978	19.2472
656.552	19.984	19.284
656.727	19.9722	19.2725
656.902	20.2615	19.5663
657.076	20.2286	19.5817
657.251	20.4141	19.5633
657.425	20.6623	19.6742
657.6	20.589	19.8413
657.775	20.7865	19.9519
657.949	20.9807	20.02
658.124	21.2152	20.185
658.298	21.1444	20.1822
658.472	21.4874	20.4069
658.647	21.5166	20.3798
658.821	21.6673	20.3478
658.996	21.64	20.3718
659.17	21.8677	20.6333
659.344	22.005	20.6645
659.519	22.0744	20.8184
659.693	22.326	20.9028
659.867	22.4896	21.2726
660.041	22.5675	21.0729
660.216	22.746	21.2031
660.39	22.8289	21.275
660.564	22.9803	21.4535
660.738	23.0794	21.4829
660.912	23.2822	21.7132
661.086	23.4782	21.7173
661.26	23.7053	21.7986
661.434	23.7191	21.8221
661.608	23.8236	21.8511
661.782	23.992	22.0283
661.956	24.2763	22.1619
662.13	24.1663	22.116
662.304	24.5111	22.4028
662.478	24.6979	22.6084
662.652	24.7438	22.5703
662.826	24.8089	22.8419
662.999	25.0745	23.0174
663.173	25.2954	22.8397
663.347	25.4485	23.1594
663.521	25.6847	23.0919
663.694	25.7358	23.2594
663.868	25.6804	23.192
664.042	25.9938	23.6772
664.215	26.0773	23.514
664.389	26.224	23.6749
664.562	26.4907	23.5879
664.736	26.4965	24.0475
664.909	26.7237	24.0316
665.083	26.9056	24.1186
665.256	27.1735	24.1125
665.43	27.2482	24.2947
665.603	27.4336	24.382
665.777	27.5319	24.6213
665.95	27.7799	24.8007
666.123	27.8392	24.874
666.297	28.0207	24.9811
666.47	28.1344	25.0464
666.643	28.4837	25.2168
666.816	28.6325	25.4238
666.99	28.7117	25.3925
667.163	28.866	25.4997
667.336	28.9426	25.6463
667.509	29.2012	25.822
667.682	29.2196	25.8293
667.855	29.5244	25.9921
668.029	29.736	26.0431
668.202	29.803	26.2674
668.375	30.1577	26.2475
668.548	30.1956	26.311
668.721	30.3449	26.7201
668.893	30.3927	26.7414
669.066	30.9383	26.8104
669.239	30.9587	27.0046
669.412	30.9228	27.0279
669.585	31.3073	27.0358
669.758	31.4563	27.4702
669.931	31.7312	27.4644
670.103	31.9264	27.5761
670.276	31.9805	27.7582
670.449	32.1638	27.9249
670.622	32.3834	27.9795
670.794	32.4466	28.2105
670.967	32.6342	28.186
671.139	32.8173	28.4891
671.312	33.1799	28.7028
671.485	33.3194	28.6236
671.657	33.612	28.8257
671.83	33.6592	28.8142
672.002	33.8648	28.9786
672.175	33.9817	29.1585
672.347	34.2001	29.2669
672.519	34.4133	29.4692
672.692	34.6314	29.6843
672.864	34.694	29.9293
673.037	34.9795	29.8196
673.209	34.951	30.0592
673.381	35.3792	30.3011
673.553	35.6287	30.2154
673.726	35.8253	30.4917
673.898	35.9487	30.5603
674.07	36.2939	30.7619
674.242	36.178	30.76
674.414	36.5827	31.0409
674.587	36.8598	31.111
674.759	37.0291	31.3151
674.931	37.2167	31.5904
675.103	37.427	31.47
675.275	37.6423	31.6887
675.447	37.7588	31.8808
675.619	37.978	32.1905
675.791	38.3354	32.1258
675.963	38.4935	32.475
676.134	38.6131	32.4636
676.306	38.9585	32.48
676.478	39.0145	32.6495
676.65	39.3534	32.8446
676.822	39.4407	33.0142
676.994	39.6583	33.1958
677.165	39.9441	33.6334
677.337	40.0707	33.6289
677.509	40.4955	33.7572
677.68	40.6799	33.9604
677.852	40.632	34.1703
678.024	40.8559	34.2344
678.195	41.2076	34.2897
678.367	41.5306	34.8041
678.538	41.6117	34.8725
678.71	41.8314	34.8624
678.881	42.0564	35.1762
679.053	42.2234	35.2699
679.224	42.4775	35.3096
679.396	42.6782	35.4944
679.567	42.921	35.778
679.738	43.2301	35.8528
679.91	43.2441	35.9155
680.081	43.5569	36.3184
680.252	43.773	36.1862
680.424	44.1929	36.4593
680.595	44.3331	36.6204
680.766	44.4103	36.8071
680.937	44.8868	37.0675
681.108	44.8263	37.3218
681.28	45.4635	37.4841
681.451	45.4419	37.5549
681.622	45.5891	37.5246
681.793	45.8105	37.8901
681.964	46.2331	38.0544
682.135	46.4048	38.066
682.306	46.452	38.5676
682.477	46.7107	38.548
682.648	47.3584	39.0138
682.819	46.8465	38.8584
682.99	47.4384	39.0624
683.16	47.8051	39.4101
683.331	48.2413	39.6656
683.502	48.2486	39.6486
683.673	48.7423	40.0055
683.844	48.8536	40.0193
684.014	48.9267	40.2274
684.185	49.2303	40.3816
684.356	49.674	41.0239
684.526	49.7688	40.7852
684.697	49.8192	40.8323
684.868	50.2623	41.2944
685.038	50.5101	41.3548
685.209	51.1151	41.7155
685.379	51.0667	41.924
685.55	51.6009	42.037
685.72	51.7135	42.0793
685.891	51.8742	42.2982
686.061	52.243	42.5831
686.232	52.3096	42.4764
686.402	52.2676	42.7259
686.572	52.7588	43.3284
686.743	53.0503	43.2589
686.913	53.1223	43.1434
687.083	53.6966	43.712
687.254	53.528	44.0109
687.424	53.7844	44.1796
687.594	54.805	44.3568
687.764	54.8086	44.4931
687.934	54.6163	44.5807
688.104	54.8506	44.8694
688.275	54.9699	44.9155
688.445	55.5285	45.357
688.615	55.5638	45.4773
688.785	56.0509	45.9409
688.955	56.2726	45.6691
689.125	56.708	46.1144
689.295	56.698	46.1426
689.465	56.9181	46.7859
689.635	57.5213	46.5287
689.805	57.9273	46.9121
689.974	57.4591	47.001
690.144	57.8426	47.3273
690.314	58.1791	47.5766
690.484	58.3615	47.7805
690.654	59.4315	48.022
690.823	59.3339	48.2601
690.993	59.194	48.2226
691.163	59.6617	48.5778
691.332	59.1076	48.6544
691.502	60.3953	49.1009
691.672	60.1784	49.0531
691.841	60.6341	49.4553
692.011	61.0114	49.7821
692.18	61.167	49.7775
692.35	61.4119	50.1113
692.519	61.3892	50.5341
692.689	62.1347	50.6887
692.858	61.9019	50.8599
693.027	62.1968	51.0586
693.197	62.999	51.3078
693.366	62.8774	51.1925
693.536	63.1166	51.4263
693.705	63.4596	51.7128
693.874	63.3353	51.7749
694.043	63.9418	51.9558
694.213	63.8762	52.3273
694.382	64.341	52.4387
694.551	64.5603	52.9541
694.72	65.4736	52.9706
694.889	65.2838	53.2265
695.058	64.9039	53.5224
695.228	65.7741	53.4295
695.397	66.2674	53.7117
695.566	66.5115	54.0308
695.735	67.0818	54.5185
695.904	67.2184	54.7072
696.073	67.0034	55.0613
696.242	66.9845	55.2647
696.41	67.7482	55.2385
696.579	68.0455	55.8807
696.748	68.1303	55.3895
696.917	68.1197	55.8733
697.086	69.1819	55.9432
697.255	68.8039	56.481
697.423	69.1369	56.6724
697.592	69.6702	56.9128
697.761	69.5382	56.8493
697.929	70.3825	57.3467
698.098	70.0846	57.5052
698.267	70.0007	57.4057
698.435	70.784	57.9958
698.604	70.8176	58.1786
698.772	71.287	58.2148
698.941	71.8043	59.0368
699.109	71.9455	58.6759
699.278	71.9752	58.9833
699.446	72.2819	59.6524
699.615	72.9568	59.8754
699.783	72.6977	59.2702
699.952	72.8571	60.0384
700.12	73.3175	60.4437
700.288	73.9741	60.9361
700.457	74.1853	60.4381
700.625	74.0343	61.1637
700.793	74.4264	61.4691
700.961	74.7009	61.5706
701.13	74.6297	61.7173
701.298	74.6748	61.4556
701.466	75.1278	61.4603
701.634	75.3081	62.2961
701.802	75.8487	62.7973
701.97	76.3848	62.7359
702.138	75.9919	63.0131
702.306	76.8787	63.2848
702.474	76.8902	63.1852
702.642	77.4732	63.1343
702.81	77.5468	63.5682
702.978	77.0497	63.7668
703.146	78.1807	64.3021
703.314	78.4119	64.2697
703.482	78.7641	64.7231
703.65	79.0629	65.0474
703.818	78.7423	65.0352
703.985	78.9481	65.2448
704.153	79.13	65.5752
704.321	79.1166	65.9334
704.488	80.3954	65.9406
704.656	80.0022	65.627
704.824	79.4867	66.316
704.991	80.5686	66.8376
705.159	80.7502	66.8832
705.327	81.8514	68.1734
705.494	81.1172	66.9763
705.662	81.8033	68.0936
705.829	81.8322	67.9994
705.997	81.2777	68.1667
706.164	82.2887	68.5585
706.332	82.3959	67.646
706.499	83.4749	68.2462
706.666	82.1598	68.0414
706.834	82.9298	68.7841
707.001	83.5549	69.0169
707.168	83.0306	69.2266
707.336	84.0241	69.9172
707.503	84.1552	69.6642
707.67	83.7928	69.5974
707.837	83.6006	70.263
708.004	84.9931	71.1159
708.172	85.2571	70.2042
708.339	85.6695	71.2833
708.506	84.5719	70.9716
708.673	85.6307	71.3074
708.84	85.3863	71.7163
709.007	85.5401	70.6873
709.174	86.1975	71.2232
709.341	85.7842	72.3905
709.508	86.0839	72.18
709.675	87.2021	72.8414
709.842	87.5408	72.439
710.009	87.4766	72.6126
710.175	87.2858	73.2014
710.342	87.477	73.6183
710.509	87.5524	73.231
710.676	88.3108	74.0304
710.843	88.5118	73.9709
711.009	88.4993	74.1741
711.176	89.8339	74.368
711.343	88.305	74.7925
711.509	89.6038	74.666
711.676	89.5293	75.6223
711.843	88.9713	74.8304
712.009	90.1247	75.3321
712.176	90.2733	75.9927
712.342	90.0674	75.7524
712.509	90.8784	76.4472
712.675	90.4237	76.0621
712.842	90.5287	76.3039
713.008	90.7967	77.4025
713.174	91.4025	76.5669
713.341	91.4494	76.91
713.507	91.4292	77.0894
713.673	92.1829	77.3395
713.84	91.8794	77.3669
714.006	92.0005	77.306
714.172	92.6848	78.638
714.339	93.0929	78.5329
714.505	91.973	78.5563
714.671	93.1184	78.3989
714.837	93.1985	78.0175
715.003	93.8907	79.2673
715.169	93.5036	78.1702
715.335	93.979	79.2383
715.501	94.3557	79.1473
715.667	94.1345	79.5948
715.833	93.6554	79.5444
715.999	93.1974	79.1657
716.165	93.9147	79.7481
716.331	95.6038	80.8482
716.497	93.6522	78.9484
716.663	94.3911	79.8524
716.829	95.5144	79.9392
716.995	95.9064	81.3591
717.161	94.6697	80.526
717.326	96.404	81.0868
717.492	94.8924	81.0051
717.658	96.1673	81.9116
717.823	95.6464	82.4214
717.989	96.3164	81.9751
718.155	96.776	82.3844
718.32	96.7205	82.2342
718.486	96.779	80.9241
718.651	95.5678	81.8734
718.817	97.3147	84.4068
718.983	97.9744	82.855
719.148	96.7958	82.131
719.314	96.2886	82.5879
719.479	97.8273	82.6728
719.644	98.2269	83.0667
719.81	97.8044	82.7234
719.975	98.5727	84.1646
720.141	95.828	82.0578
720.306	97.2278	83.7439
720.471	98.3682	83.8149
720.636	98.2437	85.3076
720.802	98.0142	83.8678
720.967	98.4965	83.8603
721.132	98.4069	84.354
721.297	99.714	86.2845
721.462	97.7344	82.9149
721.628	99.7101	84.7862
721.793	98.4981	84.8995
721.958	99.1961	84.3896
722.123	99.7694	84.9109
722.288	98.9285	86.2948
722.453	101.923	88.4074
722.618	98.9265	86.1398
722.783	99.9561	86.2105
722.948	101.665	88.631
723.112	99.6539	85.1052
723.277	99.7209	86.2513
723.442	100.21	86.9584
723.607	102.447	87.8817
723.772	101.758	87.134
723.937	102.626	89.3014
724.101	99.9076	85.8407
724.266	101.586	87.5935
724.431	101.872	87.1094
724.595	101.132	88.0048
724.76	100.72	86.1991
724.925	102.622	88.1389
725.089	101.116	87.9987
725.254	101.224	88.3854
725.418	101.576	87.0208
725.583	101.411	87.0096
725.747	103.171	88.7566
725.912	101.705	89.0262
726.076	101.259	87.9209
726.241	103.29	89.1701
726.405	103.706	87.9715
726.57	103.171	89.3736
726.734	100.953	88.4337
726.898	105.734	89.8286
727.062	102.218	91.9683
727.227	103.432	91.4086
727.391	103.843	91.5806
727.555	105.251	92.039
727.719	102.978	90.6288
727.884	104.274	89.862
728.048	104.324	90.0772
728.212	104.322	90.1778
728.376	107.618	90.5731
728.54	106.01	92.6505
728.704	103.039	88.315
728.868	107.911	92.9643
729.032	105.199	93.1293
729.196	105.923	90.9436
729.36	106.211	92.5918
729.524	108.355	92.4917
729.688	104.227	91.2173
729.852	108.729	92.1462
730.015	106.518	91.4924
730.179	104.232	89.4418
730.343	102.853	89.8277
730.507	108.259	92.947
730.671	104.652	90.774
730.834	107.79	93.9486
730.998	107.606	94.8554
731.162	110.318	94.9986
731.325	106.336	89.6442
731.489	108.541	96.4625
731.652	105.303	91.1402
731.816	108.474	93.3121
731.98	111.327	97.997
732.143	106.542	92.8381
732.307	107.96	94.3263
732.47	109.577	91.0794
732.633	108.192	93.4999
732.797	107.336	96.9134
732.96	109.663	95.7295
733.124	110.486	95.2774
733.287	108.26	95.1291
733.45	109.736	94.1121
733.614	110.493	93.1662
733.777	111.681	96.3151
733.94	107.858	95.3246
734.103	113.073	99.5184
734.266	111.586	96.2121
734.43	109.499	97.582
734.593	111.949	94.814
734.756	111.493	97.4174
734.919	110.94	94.9137
735.082	110.342	98.7827
735.245	109.072	95.7023
735.408	111.478	99.6195
735.571	111.488	100.094
735.734	111.426	96.3468
735.897	112.928	98.5257
736.06	112.245	97.1492
736.223	113.161	97.0666
736.386	113.352	100
736.549	111.262	95.7955
736.711	111.227	98.8682
736.874	108.389	95.5032
737.037	112.588	101.467
737.2	114.305	100.966
737.362	118.8	104.042
737.525	113.04	95.9919
737.688	111.296	96.782
737.85	113.114	99.8797
738.013	114.202	101.545
738.176	117.137	100.892
738.338	113.176	99.0747
738.501	113.953	98.5342
738.663	113.812	99.3883
738.826	113.507	100.056
738.988	116.017	103.058
739.151	112.102	96.0235
739.313	113.329	99.9263
739.475	115.872	101.38
739.638	116.155	101.17
739.8	115.432	103.476
739.962	116.542	102.099
740.125	112.344	101.15
740.287	117.803	104.102
740.449	118.465	102.872
740.611	115.941	103.694
740.774	116.079	102.206
740.936	117.419	103.653
741.098	117.549	103.497
741.26	120.869	104.685
741.422	116.385	102.805
741.584	117.585	104.521
741.746	116.182	103.769
741.908	119.695	108.71
742.07	113.746	101.527
742.232	116.855	104.45
742.394	118.907	106.491
742.556	120.474	109.009
742.718	121.332	108.904
742.88	118.638	106.341
743.042	120.878	109.473
743.203	123.492	107.579
743.365	118.587	105.367
743.527	119.51	105.922
743.689	116.535	103.269
743.85	125.769	107.485
744.012	117.185	104.573
744.174	119.606	108.333
744.335	123.97	107.831
744.497	121.233	108.435
744.658	121.338	106.919
744.82	116.61	106.218
744.982	120.527	107.717
745.143	127.536	115.092
745.305	117.974	105.698
745.466	122.002	109.069
745.627	119.495	105.64
745.789	122.946	110.723
745.95	116.768	105.843
746.112	121.929	110.84
746.273	122.628	105.044
746.434	123.532	111.994
746.596	123.082	106.317
746.757	121.767	106.914
746.918	124.265	110.845
747.079	123.904	108.4
747.24	123.798	108.698
747.402	125.182	115.935
747.563	124.784	110.327
747.724	122.842	109.896
747.885	123.331	109.712
748.046	124.096	112.315
748.207	124.014	109.103
748.368	126.745	110.757
748.529	124.06	109.318
748.69	122.955	113.287
748.851	119.803	109.675
749.012	125.451	112.386
749.173	120.673	107.436
749.334	126.736	112.5
749.494	125.672	108.228
749.655	127.124	111.21
749.816	123.432	112.429
749.977	125.087	109.697
750.137	123.247	111.973
750.298	126.829	111.979
750.459	123.77	107.305
750.62	125.15	111.748
750.78	126.731	112.997
750.941	130.587	113.378
751.101	122.645	111.925
751.262	128.181	112.054
751.422	124.392	112.746
751.583	126.578	116.404
751.743	124.976	114.495
751.904	129.903	116.975
752.064	124.464	110.93
752.225	130.724	116.981
752.385	127.922	114.282
752.545	128.214	116.318
752.706	126.395	115.921
752.866	128.573	117.163
753.026	127.038	112.802
753.187	125.738	114.065
753.347	126.255	115.465
753.507	127.914	116.888
753.667	126.701	114.902
753.827	129.348	114.718
753.988	124.626	114.35
754.148	129.536	117.506
754.308	129.943	115.847
754.468	128.158	114.351
754.628	131.159	118.141
754.788	126.88	115.555
754.948	130.583	117.937
755.108	132.569	115.487
755.268	127.765	113.658
755.428	131.984	117.205
755.587	129.207	116.441
755.747	131.403	116.188
755.907	130.511	119.418
756.067	131.341	117.141
756.227	129.656	118.965
756.386	129.988	116.639
756.546	131.778	116.778
756.706	129.756	118.177
756.866	131.92	118.463
757.025	139.799	122.497
757.185	130.671	117.931
757.344	139.557	123.443
757.504	128.116	114.973
757.664	136.477	120.553
757.823	129.529	116.818
757.983	140.986	126.207
758.142	134.639	119.987
758.302	130.417	118.012
758.461	134.729	117.044
758.62	138.9	125.513
758.78	128.432	114.513
758.939	134.521	119.88
759.098	129.319	116.286
759.258	129.96	119.831
759.417	131.052	116.566
759.576	137.273	119.553
759.735	129.325	122.095
759.895	131.229	117.164
760.054	133.628	119.092
760.213	130.564	116.127
760.372	130.895	119.524
760.531	129.336	118.124
760.69	131.3	118.378
760.849	132.983	119.038
761.008	137.557	117.457
761.167	137.826	123.697
761.326	130.324	121.405
761.485	135.734	122.463
761.644	136.445	119.572
761.803	134.495	117.726
761.962	135.993	118.109
762.121	136.274	123.136
762.28	132.592	123.555
762.439	130.391	117.483
762.597	136.766	120.921
762.756	130.848	123.266
762.915	131.174	118.258
763.073	135.77	123.009
763.232	133.978	116.96
763.391	134.478	126.07
763.549	136.786	122.104
763.708	135.379	121.443
763.867	138.53	121.662
764.025	138.992	125.691
764.184	0	0
764.342	136.366	125.047
764.501	139.114	120.725
764.659	0	0
764.818	135.104	119.672
764.976	0	0
765.134	134.46	118.984
765.293	0	0
765.451	128.906	113.189
765.609	134.104	121.689
765.768	0	0
765.926	0	0
766.084	0	0
766.242	0	0
766.4	0	0
766.559	0	0
766.717	0	0
766.875	0	0
767.033	0	0
767.191	0	0
767.349	0	0
767.507	0	0
767.665	0	0
767.823	0	0
767.981	0	0
768.139	0	0
768.297	0	0
768.454	0	0
768.612	0	0
768.77	0	0
768.928	0	0
769.086	0	0
769.243	0	0
769.401	0	0
769.559	0	0
769.716	0	0
769.874	0	0
770.031	0	0
770.189	0	0
770.347	0	0
770.504	0	0
770.662	0	0
770.819	0	0
770.977	0	0
771.134	0	0
771.291	0	0
771.449	0	0
771.606	0	0
771.763	0	0
771.921	0	0
772.078	0	0
772.235	0	0
772.393	0	0
772.55	0	0
772.707	0	0
772.864	0	0
773.021	0	0
773.178	0	0
773.335	0	0
773.492	0	0
773.649	0	0
773.806	0	0
773.963	0	0
774.12	0	0
774.277	0	0
774.434	0	0
774.591	0	0
774.748	0	0
774.905	0	0
775.061	0	0
775.218	0	0
775.375	0	0
775.532	0	0
775.688	0	0
775.845	0	0
776.002	0	0
776.158	0	0
776.315	0	0
776.471	0	0
776.628	0	0
776.784	0	0
776.941	0	0
777.097	0	0
777.254	0	0
777.41	0	0
777.567	0	0
777.723	0	0
777.879	0	0
778.036	0	0
778.192	0	0
778.348	0	0
778.505	0	0
778.661	0	0
778.817	0	0
778.973	0	0
779.129	0	0
779.285	0	0
779.442	0	0
779.598	0	0
779.754	0	0
779.91	0	0
780.066	0	0
780.222	0	0
780.378	0	0
780.533	0	0
780.689	0	0
780.845	0	0
781.001	0	0
781.157	0	0
781.313	0	0
781.468	0	0
781.624	0	0
781.78	0	0
781.936	0	0
782.091	0	0
782.247	0	0
782.403	0	0
782.558	0	0
782.714	0	0
782.869	0	0
783.025	0	0
783.18	0	0
783.336	0	0
783.491	0	0
783.647	0	0
783.802	0	0
783.957	0	0
784.113	0	0
784.268	0	0
784.423	0	0
784.578	0	0
784.734	0	0
784.889	0	0
785.044	0	0
785.199	0	0
785.354	0	0
785.51	0	0
785.665	0	0
785.82	0	0
785.975	0	0
786.13	0	0
786.285	0	0
786.44	0	0
786.595	0	0
786.75	0	0
786.905	0	0
787.059	0	0
787.214	0	0
787.369	0	0
787.524	0	0
787.679	0	0
787.833	0	0
787.988	0	0
788.143	0	0
788.297	0	0
788.452	0	0
788.607	0	0
788.761	0	0
788.916	0	0
789.07	0	0
789.225	0	0
789.379	0	0
789.534	0	0
789.688	0	0
789.843	0	0
789.997	0	0
790.151	0	0
790.306	0	0
790.46	0	0
790.614	0	0
790.769	0	0
790.923	0	0
791.077	0	0
791.231	0	0
791.385	0	0
791.54	0	0
791.694	0	0
791.848	0	0
792.002	0	0
792.156	0	0
792.31	0	0
792.464	0	0
792.618	0	0
792.772	0	0
792.926	0	0
793.08	0	0
793.233	0	0
793.387	0	0
793.541	0	0
793.695	0	0
793.849	0	0
794.002	0	0
794.156	0	0
794.31	0	0
794.463	0	0
794.617	0	0
794.771	0	0
794.924	0	0
795.078	0	0
795.231	0	0
795.385	0	0
795.538	0	0
795.692	0	0
795.845	0	0
795.999	0	0
796.152	0	0
796.305	0	0
796.459	0	0
796.612	0	0
796.765	0	0
796.919	0	0
797.072	0	0
797.225	0	0
797.378	0	0
797.531	0	0
797.685	0	0
797.838	0	0
797.991	0	0
798.144	0	0
798.297	0	0
798.45	0	0
798.603	0	0
798.756	0	0
798.909	0	0
799.062	0	0
799.214	0	0
799.367	0	0
799.52	0	0
799.673	0	0
799.826	0	0
799.979	0	0
800.131	0	0
800.284	0	0
800.437	0	0
800.589	0	0
800.742	0	0
800.895	0	0
801.047	0	0
801.2	0	0
801.352	0	0
801.505	0	0
801.657	0	0
801.81	0	0
801.962	0	0
802.115	0	0
802.267	0	0
802.419	0	0
802.572	0	0
802.724	0	0
802.876	0	0
803.028	0	0
803.181	0	0
803.333	0	0
803.485	0	0
803.637	0	0
803.789	0	0
803.941	0	0
804.094	0	0
804.246	0	0
804.398	0	0
804.55	0	0
804.702	0	0
804.854	0	0
805.005	0	0
805.157	0	0
805.309	0	0
805.461	0	0
805.613	0	0
805.765	0	0
805.917	0	0
806.068	0	0
806.22	0	0
806.372	0	0
806.523	0	0
806.675	0	0
806.827	0	0
806.978	0	0
807.13	0	0
807.281	0	0
807.433	0	0
807.584	0	0
807.736	0	0
807.887	0	0
808.039	0	0
808.19	0	0
808.342	0	0
808.493	0	0
808.644	0	0
808.796	0	0
808.947	0	0
809.098	0	0
809.249	0	0
